* Measurement data measured by REW V5.20.4
* Source: Headset (2- USB-C to 3.5mm Headphone Jack Adapter), MICROPHONE (Master Volume), R, volume: 0.540
* Format: 256k Log Swept Sine, 1 sweep at -6.0 dBFS with no timing reference
* Dated: 27 Sep, 2022 3:08:01 PM
* REW Settings:
*  C-weighting compensation: Off
*  Target level: 75.0 dB
* Note: 
* Measurement: Jabra Elite Active 75t R
* Smoothing: None
* Frequency Step: 1/48 octave
* Start Frequency: 20.300 Hz
*
* Freq(Hz)	SPL(dB)	Phase(degrees)
20.299999	108.307	-107.7491
20.600000	108.383	-109.2774
20.900000	108.457	-110.5850
21.200001	108.544	-111.8488
21.400000	108.612	-112.6993
21.799999	108.765	-114.4626
22.000000	108.846	-115.3889
22.400000	109.003	-117.3247
22.700001	109.107	-118.8107
23.000000	109.193	-120.2760
23.299999	109.262	-121.6826
23.600000	109.317	-123.0141
24.000000	109.381	-124.6796
24.299999	109.430	-125.8811
24.700001	109.499	-127.4794
25.000000	109.555	-128.7051
25.400000	109.631	-130.3749
25.799999	109.709	-132.0353
26.200001	109.789	-133.6246
26.500000	109.852	-134.7571
26.900000	109.939	-136.2126
27.200001	110.002	-137.2970
27.600000	110.074	-138.7657
28.000000	110.124	-140.2525
28.500000	110.152	-142.0666
29.000000	110.166	-143.7877
29.500000	110.193	-145.4913
30.000000	110.239	-147.2872
30.400000	110.279	-148.7750
30.700001	110.306	-149.8696
31.100000	110.336	-151.2331
31.500000	110.367	-152.4755
32.000000	110.410	-153.9509
32.500000	110.446	-155.4828
33.000000	110.462	-157.1027
33.500000	110.455	-158.7235
34.000000	110.451	-160.2913
34.500000	110.469	-161.8562
35.000000	110.492	-163.4541
35.500000	110.501	-165.0018
36.000000	110.496	-166.3798
36.500000	110.492	-167.5950
37.000000	110.500	-168.7974
37.500000	110.509	-170.1064
38.200001	110.499	-172.0370
38.700001	110.477	-173.3412
39.500000	110.451	-175.2915
40.000000	110.434	-176.5282
40.599998	110.398	-178.0366
41.200001	110.349	-179.4995
41.799999	110.304	179.0848
42.500000	110.263	177.4281
43.099998	110.229	176.0019
43.700001	110.192	174.6031
44.400002	110.142	173.0128
45.000000	110.093	171.6786
45.500000	110.050	170.5887
46.200001	109.987	169.0930
46.799999	109.929	167.8305
47.500000	109.857	166.3784
48.200001	109.780	164.9529
48.700001	109.724	163.9574
49.400002	109.644	162.6096
50.000000	109.578	161.4937
50.799999	109.487	160.0280
51.500000	109.401	158.7621
52.200001	109.311	157.5203
53.000000	109.210	156.0978
53.799999	109.102	154.6816
54.500000	109.002	153.4974
55.200001	108.906	152.3385
56.000000	108.793	151.0051
57.000000	108.642	149.4295
58.000000	108.497	147.9208
59.000000	108.341	146.4076
60.000000	108.181	144.9680
60.799999	108.058	143.7773
61.500000	107.943	142.7365
62.200001	107.828	141.7606
63.000000	107.705	140.6837
64.000000	107.545	139.3638
65.000000	107.369	138.1454
66.000000	107.194	136.9474
67.000000	107.025	135.7277
68.000000	106.859	134.5660
69.000000	106.683	133.4709
70.000000	106.490	132.4082
71.000000	106.299	131.3335
72.000000	106.109	130.2773
73.000000	105.924	129.3431
74.000000	105.740	128.3900
75.000000	105.543	127.4526
76.199997	105.320	126.3719
77.500000	105.066	125.2659
78.800003	104.813	124.2440
80.000000	104.578	123.2846
81.199997	104.342	122.3835
82.500000	104.073	121.4981
83.800003	103.808	120.6248
85.000000	103.566	119.8466
86.199997	103.321	119.1682
87.500000	103.055	118.5602
88.500000	102.852	118.0734
90.000000	102.523	117.4072
91.199997	102.287	116.8577
92.500000	102.001	116.3903
93.800003	101.741	116.1465
95.000000	101.469	115.6914
96.199997	101.215	115.4777
97.500000	100.944	115.1968
98.800003	100.670	115.0957
100.000000	100.457	114.8458
101.500000	100.141	114.5446
103.000000	99.836	114.4251
104.400002	99.563	114.5140
106.000000	99.248	114.4337
107.500000	98.959	114.5247
109.000000	98.667	114.7744
110.599998	98.355	114.9086
112.000000	98.076	115.1561
113.800003	97.721	115.4329
115.000000	97.471	115.9095
117.199997	97.037	116.7367
118.000000	96.881	117.1630
120.599998	96.405	118.3915
122.000000	96.175	118.9525
124.099998	95.779	119.9414
125.000000	95.613	120.4805
126.500000	95.396	121.3027
128.000000	95.121	122.2083
131.500000	94.613	124.7180
132.000000	94.528	125.1970
134.000000	94.242	126.8891
136.000000	93.963	128.3770
138.000000	93.726	129.8282
140.000000	93.515	131.3624
143.000000	93.232	134.0913
145.000000	93.046	136.3462
147.500000	92.840	138.2693
150.000000	92.705	140.4482
152.500000	92.575	143.1385
155.000000	92.495	144.7040
157.500000	92.511	146.6273
160.000000	92.362	149.1377
162.500000	92.365	150.9757
165.000000	92.338	153.0782
167.500000	92.350	154.7425
170.000000	92.393	156.6281
172.500000	92.401	158.1460
175.000000	92.478	159.6482
177.500000	92.541	161.1455
180.000000	92.552	162.5689
182.500000	92.643	163.6275
185.000000	92.741	165.0941
187.500000	92.816	166.1480
190.000000	92.931	167.3615
192.500000	93.032	168.3717
195.000000	93.149	169.3477
197.500000	93.293	170.1846
200.000000	93.427	170.8472
203.000000	93.598	171.8086
206.000000	93.756	172.3713
209.000000	93.937	173.0677
212.000000	94.070	173.8008
214.000000	94.175	174.0912
218.000000	94.351	175.3737
220.000000	94.435	175.7593
224.000000	94.542	176.3030
227.000000	94.618	176.9619
230.000000	94.725	177.4693
233.000000	94.795	177.8332
236.000000	94.862	178.2587
240.000000	94.954	178.7317
243.000000	95.011	179.1468
247.000000	95.074	179.6923
250.000000	95.118	-179.7522
254.000000	95.153	-179.1139
258.000000	95.193	-178.6729
262.000000	95.244	-178.2445
265.000000	95.280	-177.8721
269.000000	95.312	-177.3856
272.000000	95.341	-177.1212
276.000000	95.383	-176.7430
280.000000	95.436	-176.2517
285.000000	95.493	-175.7878
290.000000	95.547	-175.2499
295.000000	95.604	-174.7292
300.000000	95.675	-174.2979
304.000000	95.711	-173.9595
307.000000	95.751	-173.6210
311.000000	95.802	-173.3125
315.000000	95.826	-172.8980
320.000000	95.869	-172.2650
325.000000	95.963	-171.8792
330.000000	96.008	-171.4353
335.000000	96.074	-171.0447
340.000000	96.144	-170.8005
345.000000	96.194	-170.1131
350.000000	96.253	-170.0128
355.000000	96.310	-169.1900
360.000000	96.386	-168.9287
365.000000	96.461	-168.7092
370.000000	96.525	-168.3913
375.000000	96.560	-168.0078
382.000000	96.657	-167.6209
387.000000	96.728	-167.2278
395.000000	96.835	-166.8621
400.000000	96.898	-166.5765
406.000000	96.973	-166.2943
412.000000	97.065	-166.0157
418.000000	97.167	-165.5671
425.000000	97.230	-165.1830
431.000000	97.361	-165.2144
437.000000	97.440	-165.2785
444.000000	97.489	-165.3219
450.000000	97.604	-163.8195
455.000000	97.729	-164.2453
462.000000	97.699	-164.9386
468.000000	97.749	-164.4833
475.000000	97.874	-164.3069
482.000000	97.789	-164.2236
487.000000	97.992	-164.1586
494.000000	98.115	-164.8007
500.000000	98.087	-164.6139
508.000000	98.189	-164.5227
515.000000	98.245	-164.3738
522.000000	98.310	-164.5728
530.000000	98.381	-164.5082
538.000000	98.417	-164.5350
545.000000	98.478	-164.6865
552.000000	98.527	-164.9856
560.000000	98.574	-164.8612
570.000000	98.641	-165.1829
580.000000	98.681	-165.4089
590.000000	98.729	-165.5679
600.000000	98.820	-165.6624
608.000000	98.887	-165.8905
615.000000	98.964	-166.0060
622.000000	99.035	-166.2230
630.000000	99.140	-166.5331
640.000000	99.280	-166.7722
650.000000	99.378	-167.0824
660.000000	99.462	-167.3140
670.000000	99.537	-167.5496
680.000000	99.608	-167.7430
690.000000	99.685	-167.8788
700.000000	99.739	-167.8223
710.000000	99.734	-167.9054
720.000000	99.778	-168.2986
730.000000	99.806	-168.0097
740.000000	99.819	-168.4165
750.000000	99.793	-168.1861
762.000000	99.847	-168.3501
775.000000	99.791	-168.0034
788.000000	99.844	-168.0442
800.000000	99.807	-168.1123
812.000000	99.763	-168.0154
825.000000	99.729	-167.7604
838.000000	99.736	-167.5026
850.000000	99.790	-166.6040
862.000000	99.606	-165.7834
875.000000	99.690	-166.5541
885.000000	99.509	-165.0840
900.000000	99.826	-164.6999
912.000000	99.631	-166.1889
925.000000	99.191	-165.2838
938.000000	98.812	-162.6386
950.000000	98.417	-160.3121
962.000000	97.930	-159.7840
975.000000	97.822	-162.2023
988.000000	98.208	-160.8704
1000.000000	97.896	-159.6919
1015.000000	98.144	-159.0874
1030.000000	98.177	-159.3546
1044.000000	98.113	-159.1909
1060.000000	98.210	-158.2788
1075.000000	98.237	-157.2169
1090.000000	98.141	-156.6598
1106.000000	98.259	-156.5311
1120.000000	98.196	-155.7375
1138.000000	98.224	-155.2410
1150.000000	98.323	-155.0348
1172.000000	98.336	-154.5037
1180.000000	98.379	-154.2381
1206.000000	98.401	-153.5794
1220.000000	98.486	-153.3165
1241.000000	98.563	-152.5058
1250.000000	98.624	-152.6169
1265.000000	98.657	-152.2910
1280.000000	98.723	-151.8905
1315.000000	98.885	-151.4185
1320.000000	98.899	-151.2849
1340.000000	98.958	-151.1305
1360.000000	99.097	-150.8711
1380.000000	99.169	-150.5749
1400.000000	99.269	-150.0820
1430.000000	99.382	-149.8266
1450.000000	99.478	-149.4566
1475.000000	99.574	-149.0913
1500.000000	99.678	-148.5718
1525.000000	99.775	-148.2010
1550.000000	99.868	-147.7437
1575.000000	99.958	-147.3020
1600.000000	100.062	-146.9168
1625.000000	100.133	-146.5211
1650.000000	100.265	-146.1122
1675.000000	100.378	-145.6859
1700.000000	100.484	-145.2676
1725.000000	100.602	-144.8891
1750.000000	100.738	-144.5892
1775.000000	100.852	-144.3571
1800.000000	100.981	-143.9344
1825.000000	101.132	-143.8152
1850.000000	101.251	-143.4968
1875.000000	101.417	-143.3928
1900.000000	101.568	-143.1783
1925.000000	101.718	-143.1415
1950.000000	101.864	-143.0975
1975.000000	102.027	-142.9578
2000.000000	102.178	-143.0672
2030.000000	102.377	-143.1797
2060.000000	102.552	-143.3808
2090.000000	102.710	-143.7585
2120.000000	102.906	-144.0485
2140.000000	103.042	-144.3824
2180.000000	103.291	-145.1117
2200.000000	103.380	-145.7352
2240.000000	103.634	-146.4896
2270.000000	103.783	-147.1680
2300.000000	103.944	-147.9941
2330.000000	104.087	-148.8176
2360.000000	104.224	-149.8185
2400.000000	104.379	-150.9915
2430.000000	104.495	-151.8769
2470.000000	104.604	-153.3838
2500.000000	104.648	-154.3940
2540.000000	104.732	-155.5580
2580.000000	104.819	-156.5845
2620.000000	104.822	-157.7721
2650.000000	104.876	-158.7418
2690.000000	104.877	-159.5733
2720.000000	104.887	-160.6275
2760.000000	104.862	-161.4978
2800.000000	104.901	-162.2557
2850.000000	104.966	-163.3384
2900.000000	105.057	-164.5651
2950.000000	105.199	-165.0530
3000.000000	105.307	-165.7978
3040.000000	105.226	-167.8076
3070.000000	105.054	-167.7709
3110.000000	104.773	-167.3616
3150.000000	104.622	-169.3283
3200.000000	104.576	-169.7501
3250.000000	104.565	-170.0411
3300.000000	104.455	-171.1860
3350.000000	104.343	-171.9050
3400.000000	104.253	-172.4121
3450.000000	104.138	-173.1243
3500.000000	104.044	-173.5621
3550.000000	103.902	-174.0915
3600.000000	103.819	-174.4728
3650.000000	103.712	-174.8482
3700.000000	103.610	-175.3103
3750.000000	103.437	-175.3442
3820.000000	103.302	-175.8067
3870.000000	103.129	-176.0085
3950.000000	102.933	-175.5472
4000.000000	102.862	-175.5715
4060.000000	102.671	-175.4554
4120.000000	102.530	-174.9156
4180.000000	102.399	-174.7830
4250.000000	102.351	-174.2365
4310.000000	102.192	-174.0690
4370.000000	102.082	-173.5143
4440.000000	102.027	-172.4979
4500.000000	101.863	-172.0553
4550.000000	101.859	-172.1130
4620.000000	101.835	-171.0575
4680.000000	101.740	-170.2010
4750.000000	101.608	-169.8839
4820.000000	101.545	-168.9790
4870.000000	101.583	-168.4727
4940.000000	101.389	-167.0784
5000.000000	101.348	-166.7578
5080.000000	101.459	-165.7186
5150.000000	101.383	-164.3929
5220.000000	101.306	-164.5344
5300.000000	101.404	-163.0638
5380.000000	101.348	-162.9818
5450.000000	101.419	-161.8609
5520.000000	101.259	-160.6780
5600.000000	101.397	-160.5585
5700.000000	101.223	-158.9019
5800.000000	101.245	-157.6665
5900.000000	101.213	-158.1089
6000.000000	101.118	-156.0666
6080.000000	101.092	-155.6451
6150.000000	101.259	-155.3896
6220.000000	101.179	-152.8226
6300.000000	101.327	-152.3564
6400.000000	101.084	-149.9966
6500.000000	101.278	-149.8515
6600.000000	101.331	-148.1969
6700.000000	101.292	-144.9835
6800.000000	101.217	-144.2497
6900.000000	101.230	-141.7838
7000.000000	101.550	-137.1541
7100.000000	101.493	-135.4732
7200.000000	101.827	-130.9350
7300.000000	102.559	-126.9945
7400.000000	103.504	-120.8951
7500.000000	104.655	-119.7522
7620.000000	106.150	-117.2013
7750.000000	108.257	-118.2448
7880.000000	109.758	-123.7592
8000.000000	111.199	-138.4891
8120.000000	112.031	-149.6646
8250.000000	111.683	-168.7930
8380.000000	110.514	-179.6707
8500.000000	108.931	176.5803
8620.000000	107.805	171.5600
8750.000000	106.606	167.7594
8850.000000	105.704	167.6707
9000.000000	105.580	165.5341
9120.000000	104.843	169.7469
9250.000000	103.189	169.9109
9380.000000	103.438	172.6437
9500.000000	102.290	174.3878
9620.000000	102.033	170.9420
9750.000000	101.900	178.5376
9880.000000	102.154	178.0078
10000.000000	101.529	-177.8626
10150.000000	102.152	174.7532
10300.000000	102.142	172.2780
10440.000000	102.290	174.1013
10600.000000	101.843	165.5657
10750.000000	101.587	160.8076
10900.000000	102.478	162.7040
11060.000000	101.409	155.0580
11200.000000	100.651	154.3122
11380.000000	99.323	150.9603
11500.000000	98.360	150.3654
11720.000000	98.817	149.8103
11800.000000	96.745	145.5941
12060.000000	96.203	147.4866
12200.000000	96.566	137.9833
12410.000000	94.409	144.9875
12500.000000	92.788	139.1564
12650.000000	93.168	140.9832
12800.000000	92.956	140.1225
13150.000000	92.463	132.6173
13200.000000	91.983	139.5250
13400.000000	90.063	151.5056
13600.000000	90.332	130.9952
13800.000000	88.820	124.9830
14000.000000	88.713	145.6254
14300.000000	87.443	155.1282
14500.000000	86.156	144.2172
14750.000000	88.865	141.3027
15000.000000	88.810	146.4352
15250.000000	87.148	123.3153
15500.000000	89.471	119.9698
15750.000000	89.270	133.9763
16000.000000	89.370	117.8248
16250.000000	94.245	86.3390
16500.000000	95.809	59.3546
16750.000000	93.836	50.0217
17000.000000	97.303	2.8329
17250.000000	91.654	-19.7886
17500.000000	92.360	-82.2305
17750.000000	89.904	-121.9944
18000.000000	82.635	-121.9678
18250.000000	82.387	-163.2558
18500.000000	77.683	179.9346
18750.000000	76.072	96.0395
19000.000000	66.507	70.4962
19250.000000	68.227	6.9677
19500.000000	64.074	1.6906
19750.000000	63.304	-88.5990
