* Measurement data measured by REW V5.20.4
* Source: Microphone (2- KM-HIFI-384KHZ), MICROPHONE (Master Volume), R, volume: 0.250
* Format: 256k Log Swept Sine, 1 sweep at -6.0 dBFS with no timing reference
* Dated: 10 Feb, 2022 9:46:43 PM
* REW Settings:
*  C-weighting compensation: Off
*  Target level: 75.0 dB
* Note: 
* Measurement: B2 R
* Smoothing: None
* Frequency Step: 1/48 octave
* Start Frequency: 20.000 Hz
*
* Freq(Hz)	SPL(dB)	Phase(degrees)
20.000000	65.765	-176.9723
20.299999	65.758	-177.3024
20.600000	65.748	-177.5887
20.900000	65.738	-177.8199
21.200001	65.734	-178.0229
21.400000	65.736	-178.1577
21.799999	65.747	-178.4487
22.000000	65.752	-178.6159
22.400000	65.759	-179.0021
22.700001	65.756	-179.2957
23.000000	65.746	-179.5595
23.299999	65.733	-179.7822
23.600000	65.721	-179.9582
24.000000	65.712	179.8566
24.299999	65.711	179.7230
24.700001	65.713	179.5349
25.000000	65.714	179.3920
25.400000	65.716	179.2109
25.799999	65.721	179.0569
26.200001	65.736	178.8912
26.500000	65.750	178.7272
26.900000	65.765	178.4446
27.200001	65.768	178.1942
27.600000	65.761	177.8568
28.000000	65.745	177.5818
28.500000	65.727	177.3412
29.000000	65.722	177.1400
29.500000	65.725	176.8766
30.000000	65.722	176.5572
30.400000	65.714	176.3038
30.700001	65.706	176.1409
31.100000	65.694	175.9603
31.500000	65.685	175.8033
32.000000	65.678	175.6160
32.500000	65.673	175.4200
33.000000	65.667	175.2249
33.500000	65.659	175.0291
34.000000	65.654	174.8304
34.500000	65.653	174.6096
35.000000	65.651	174.3712
35.500000	65.644	174.1316
36.000000	65.636	173.9179
36.500000	65.631	173.7199
37.000000	65.627	173.5088
37.500000	65.621	173.2711
38.200001	65.602	172.9811
38.700001	65.587	172.8348
39.500000	65.578	172.5587
40.000000	65.565	172.3121
40.599998	65.533	172.0577
41.200001	65.501	171.9591
41.799999	65.491	171.8947
42.500000	65.491	171.6404
43.099998	65.470	171.3432
43.700001	65.436	171.1606
44.400002	65.412	171.0702
45.000000	65.405	170.9315
45.500000	65.394	170.7610
46.200001	65.366	170.5948
46.799999	65.353	170.5581
47.500000	65.359	170.4485
48.200001	65.358	170.1754
48.700001	65.341	169.9792
49.400002	65.312	169.8365
50.000000	65.302	169.7677
50.799999	65.302	169.5279
51.500000	65.280	169.1930
52.200001	65.235	168.9744
53.000000	65.202	168.9594
53.799999	65.210	168.8475
54.500000	65.207	168.5284
55.200001	65.174	168.2536
56.000000	65.142	168.1480
57.000000	65.135	167.9860
58.000000	65.118	167.6844
59.000000	65.083	167.4617
60.000000	65.056	167.3010
60.799999	65.038	167.0909
61.500000	65.012	166.9164
62.200001	64.989	166.8125
63.000000	64.975	166.6503
64.000000	64.943	166.3585
65.000000	64.908	166.1927
66.000000	64.885	166.0113
67.000000	64.856	165.7960
68.000000	64.822	165.6284
69.000000	64.795	165.4698
70.000000	64.765	165.2747
71.000000	64.732	165.1136
72.000000	64.707	164.9500
73.000000	64.677	164.7519
74.000000	64.644	164.6133
75.000000	64.614	164.4770
76.199997	64.582	164.3204
77.500000	64.529	164.0968
78.800003	64.491	164.0585
80.000000	64.459	163.8327
81.199997	64.425	163.6906
82.500000	64.387	163.4679
83.800003	64.354	163.3281
85.000000	64.320	163.1772
86.199997	64.286	163.0405
87.500000	64.244	162.9154
88.500000	64.214	162.8121
90.000000	64.168	162.6660
91.199997	64.129	162.5234
92.500000	64.092	162.4370
93.800003	64.057	162.2989
95.000000	64.023	162.2130
96.199997	63.987	162.0771
97.500000	63.945	162.0100
98.800003	63.905	161.8698
100.000000	63.861	161.8381
101.500000	63.832	161.6970
103.000000	63.780	161.5481
104.400002	63.744	161.4637
106.000000	63.691	161.3619
107.500000	63.653	161.3283
109.000000	63.611	161.2233
110.599998	63.561	161.1589
112.000000	63.520	161.0925
113.800003	63.466	161.0140
115.000000	63.431	160.9793
117.199997	63.366	160.9017
118.000000	63.346	160.8756
120.599998	63.270	160.7477
122.000000	63.233	160.7001
124.099998	63.169	160.6736
125.000000	63.152	160.6299
126.500000	63.104	160.5748
128.000000	63.068	160.5701
131.500000	62.969	160.5350
132.000000	62.957	160.5352
134.000000	62.899	160.5048
136.000000	62.847	160.5415
138.000000	62.802	160.5400
140.000000	62.742	160.5735
143.000000	62.657	160.5472
145.000000	62.606	160.5981
147.500000	62.547	160.6311
150.000000	62.485	160.6445
152.500000	62.418	160.7589
155.000000	62.359	160.8417
157.500000	62.292	160.9296
160.000000	62.249	161.0681
162.500000	62.165	161.0800
165.000000	62.076	161.0195
167.500000	62.049	161.2422
170.000000	61.991	161.2465
172.500000	61.937	161.3857
175.000000	61.876	161.4960
177.500000	61.837	161.6026
180.000000	61.788	161.8190
182.500000	61.754	161.9141
185.000000	61.671	161.9536
187.500000	61.631	162.0901
190.000000	61.560	162.2141
192.500000	61.533	162.2870
195.000000	61.459	162.5287
197.500000	61.407	162.6810
200.000000	61.368	162.9520
203.000000	61.343	163.1764
206.000000	61.230	163.3383
209.000000	61.243	163.5757
212.000000	61.206	163.8337
214.000000	61.203	164.0128
218.000000	61.143	164.2847
220.000000	61.103	164.3926
224.000000	61.046	164.6904
227.000000	61.007	164.8359
230.000000	60.975	165.0270
233.000000	60.922	165.1548
236.000000	60.891	165.4572
240.000000	60.842	165.6994
243.000000	60.811	166.0297
247.000000	60.774	166.2206
250.000000	60.743	166.4810
254.000000	60.702	166.7367
258.000000	60.659	167.0713
262.000000	60.622	167.3793
265.000000	60.599	167.5446
269.000000	60.556	167.8596
272.000000	60.525	168.0613
276.000000	60.484	168.3412
280.000000	60.452	168.6478
285.000000	60.421	169.0981
290.000000	60.396	169.6729
295.000000	60.365	169.7117
300.000000	60.328	169.9100
304.000000	60.299	170.1063
307.000000	60.267	170.2015
311.000000	60.225	170.3565
315.000000	60.187	170.5919
320.000000	60.145	170.8605
325.000000	60.094	171.2020
330.000000	60.043	171.4887
335.000000	60.004	171.8625
340.000000	59.952	172.1743
345.000000	59.912	172.5211
350.000000	59.882	172.8851
355.000000	59.838	173.2022
360.000000	59.801	173.5716
365.000000	59.765	173.9255
370.000000	59.731	174.2817
375.000000	59.695	174.6461
382.000000	59.655	175.1337
387.000000	59.621	175.4955
395.000000	59.576	176.0882
400.000000	59.544	176.4608
406.000000	59.512	176.8758
412.000000	59.479	177.2977
418.000000	59.449	177.7640
425.000000	59.413	178.2723
431.000000	59.383	178.7009
437.000000	59.356	179.1303
444.000000	59.322	179.6469
450.000000	59.292	-179.8680
455.000000	59.275	-179.5869
462.000000	59.243	-179.0887
468.000000	59.222	-178.6562
475.000000	59.193	-178.1516
482.000000	59.168	-177.6487
487.000000	59.150	-177.3045
494.000000	59.127	-176.8198
500.000000	59.109	-176.3640
508.000000	59.090	-175.7917
515.000000	59.068	-175.3048
522.000000	59.051	-174.7952
530.000000	59.029	-174.2222
538.000000	59.010	-173.6483
545.000000	58.996	-173.1331
552.000000	58.978	-172.6430
560.000000	58.964	-172.0529
570.000000	58.945	-171.3338
580.000000	58.929	-170.6257
590.000000	58.912	-169.8739
600.000000	58.901	-169.1144
608.000000	58.891	-168.5521
615.000000	58.881	-168.0388
622.000000	58.875	-167.5184
630.000000	58.864	-166.9304
640.000000	58.857	-166.1752
650.000000	58.846	-165.4586
660.000000	58.842	-164.6810
670.000000	58.841	-163.9255
680.000000	58.840	-163.1720
690.000000	58.835	-162.4176
700.000000	58.838	-161.6878
710.000000	58.836	-160.9254
720.000000	58.843	-160.1606
730.000000	58.853	-159.4049
740.000000	58.861	-158.6327
750.000000	58.880	-157.8822
762.000000	58.892	-156.9559
775.000000	58.918	-155.9641
788.000000	58.943	-155.0174
800.000000	58.971	-154.1107
812.000000	59.003	-153.2438
825.000000	59.044	-152.3146
838.000000	59.088	-151.3711
850.000000	59.134	-150.5142
862.000000	59.184	-149.6958
875.000000	59.242	-148.8262
885.000000	59.289	-148.1781
900.000000	59.368	-147.2134
912.000000	59.434	-146.4543
925.000000	59.504	-145.6769
938.000000	59.580	-144.9507
950.000000	59.657	-144.2586
962.000000	59.728	-143.6417
975.000000	59.820	-142.9626
988.000000	59.910	-142.3415
1000.000000	59.997	-141.8262
1015.000000	60.105	-141.1701
1030.000000	60.210	-140.5668
1044.000000	60.308	-140.0646
1060.000000	60.423	-139.5021
1075.000000	60.527	-139.0325
1090.000000	60.620	-138.5738
1106.000000	60.710	-138.1473
1120.000000	60.786	-137.7536
1138.000000	60.884	-137.3200
1150.000000	60.951	-137.0410
1172.000000	61.060	-136.5436
1180.000000	61.094	-136.3943
1206.000000	61.216	-135.8659
1220.000000	61.306	-135.6054
1241.000000	61.442	-135.1926
1250.000000	61.502	-135.0500
1265.000000	61.600	-134.7968
1280.000000	61.696	-134.5120
1315.000000	61.912	-133.9489
1320.000000	61.942	-133.8379
1340.000000	62.066	-133.5435
1360.000000	62.225	-133.1950
1380.000000	62.348	-132.9225
1400.000000	62.469	-132.6070
1430.000000	62.645	-132.1979
1450.000000	62.761	-131.9050
1475.000000	62.897	-131.5782
1500.000000	63.038	-131.2422
1525.000000	63.165	-130.8877
1550.000000	63.273	-130.5565
1575.000000	63.371	-130.1791
1600.000000	63.472	-129.8382
1625.000000	63.570	-129.4678
1650.000000	63.666	-129.0934
1675.000000	63.766	-128.7191
1700.000000	63.865	-128.3154
1725.000000	63.967	-127.9267
1750.000000	64.070	-127.5375
1775.000000	64.179	-127.1462
1800.000000	64.287	-126.7716
1825.000000	64.396	-126.3809
1850.000000	64.510	-126.0407
1875.000000	64.623	-125.6588
1900.000000	64.742	-125.3187
1925.000000	64.855	-124.9779
1950.000000	64.972	-124.6580
1975.000000	65.096	-124.3571
2000.000000	65.216	-124.0681
2030.000000	65.364	-123.7618
2060.000000	65.515	-123.4784
2090.000000	65.667	-123.2474
2120.000000	65.822	-123.0256
2140.000000	65.924	-122.9048
2180.000000	66.132	-122.7152
2200.000000	66.236	-122.6661
2240.000000	66.445	-122.6018
2270.000000	66.603	-122.6137
2300.000000	66.760	-122.6615
2330.000000	66.916	-122.7620
2360.000000	67.072	-122.9157
2400.000000	67.273	-123.1972
2430.000000	67.420	-123.4734
2470.000000	67.615	-123.9069
2500.000000	67.754	-124.3116
2540.000000	67.933	-124.9034
2580.000000	68.099	-125.5845
2620.000000	68.257	-126.3377
2650.000000	68.367	-126.9477
2690.000000	68.498	-127.8190
2720.000000	68.585	-128.5187
2760.000000	68.690	-129.4770
2800.000000	68.778	-130.4764
2850.000000	68.864	-131.7685
2900.000000	68.921	-133.0515
2950.000000	68.949	-134.3401
3000.000000	68.949	-135.5851
3040.000000	68.934	-136.5571
3070.000000	68.908	-137.2324
3110.000000	68.868	-138.1077
3150.000000	68.812	-138.9135
3200.000000	68.725	-139.8347
3250.000000	68.624	-140.6496
3300.000000	68.512	-141.3326
3350.000000	68.391	-141.8810
3400.000000	68.264	-142.3002
3450.000000	68.138	-142.6164
3500.000000	68.009	-142.8360
3550.000000	67.887	-142.9178
3600.000000	67.760	-142.9345
3650.000000	67.639	-142.8676
3700.000000	67.519	-142.7116
3750.000000	67.402	-142.4928
3820.000000	67.249	-142.0435
3870.000000	67.145	-141.6494
3950.000000	66.986	-140.8918
4000.000000	66.893	-140.3657
4060.000000	66.789	-139.6391
4120.000000	66.696	-138.8265
4180.000000	66.614	-137.9055
4250.000000	66.550	-136.8056
4310.000000	66.505	-135.8419
4370.000000	66.480	-134.9010
4440.000000	66.471	-133.8085
4500.000000	66.474	-132.8773
4550.000000	66.483	-132.1278
4620.000000	66.505	-131.1350
4680.000000	66.535	-130.2895
4750.000000	66.581	-129.3714
4820.000000	66.633	-128.4801
4870.000000	66.672	-127.9059
4940.000000	66.726	-127.1155
5000.000000	66.777	-126.4773
5080.000000	66.848	-125.6672
5150.000000	66.913	-125.0002
5220.000000	66.987	-124.3397
5300.000000	67.090	-123.6054
5380.000000	67.209	-122.8666
5450.000000	67.335	-122.3036
5520.000000	67.478	-121.8467
5600.000000	67.685	-121.5086
5700.000000	68.003	-121.8175
5800.000000	68.342	-123.3447
5900.000000	68.567	-126.4816
6000.000000	68.492	-130.6159
6080.000000	68.153	-133.5990
6150.000000	67.706	-135.2983
6220.000000	67.207	-135.9081
6300.000000	66.643	-135.3642
6400.000000	66.050	-133.3505
6500.000000	65.608	-130.4290
6600.000000	65.317	-127.1306
6700.000000	65.166	-123.7026
6800.000000	65.142	-120.3478
6900.000000	65.244	-117.1004
7000.000000	65.487	-114.1275
7100.000000	65.817	-111.4469
7200.000000	66.236	-109.1775
7300.000000	66.720	-107.4020
7400.000000	67.276	-106.1793
7500.000000	67.907	-105.5592
7620.000000	68.755	-106.2190
7750.000000	69.803	-108.9551
7880.000000	70.575	-114.4394
8000.000000	71.013	-121.8800
8120.000000	70.994	-130.7608
8250.000000	70.397	-139.9809
8380.000000	69.346	-147.0882
8500.000000	68.180	-151.2141
8620.000000	66.960	-153.0932
8750.000000	65.665	-152.9788
8850.000000	64.754	-151.3547
9000.000000	63.761	-147.3326
9120.000000	63.300	-144.7125
9250.000000	62.839	-143.1171
9380.000000	62.321	-141.7898
9500.000000	61.853	-140.5398
9620.000000	61.387	-139.1323
9750.000000	60.941	-137.8153
9880.000000	60.505	-136.6905
10000.000000	60.082	-135.7898
10150.000000	59.519	-134.7814
10300.000000	58.912	-133.9683
10440.000000	58.278	-132.6484
10600.000000	57.485	-131.0697
10750.000000	56.733	-128.7977
10900.000000	55.977	-125.8663
11060.000000	55.217	-122.0513
11200.000000	54.605	-118.3554
11380.000000	53.910	-113.0620
11500.000000	53.514	-109.5059
11720.000000	52.948	-102.7004
11800.000000	52.790	-100.1982
12060.000000	52.249	-92.7366
12200.000000	52.054	-88.5622
12410.000000	51.770	-82.6469
12500.000000	51.710	-80.1099
12650.000000	51.618	-75.8487
12800.000000	51.572	-71.7215
13150.000000	51.519	-62.9493
13200.000000	51.531	-61.6660
13400.000000	51.539	-56.9993
13600.000000	51.497	-52.2841
13800.000000	51.610	-47.4016
14000.000000	51.753	-42.4701
14300.000000	52.155	-34.5638
14500.000000	52.627	-29.6673
14750.000000	53.573	-24.3193
15000.000000	54.754	-21.6512
15250.000000	56.052	-22.9435
15500.000000	57.058	-28.6980
15750.000000	57.284	-37.0624
16000.000000	56.720	-43.9656
16250.000000	55.856	-47.2688
16500.000000	55.089	-47.0578
16750.000000	54.578	-44.9263
17000.000000	54.402	-42.6868
17250.000000	54.552	-40.7549
17500.000000	54.881	-41.1868
17750.000000	55.175	-44.3887
18000.000000	55.057	-49.4642
18250.000000	54.595	-54.4390
18500.000000	53.912	-58.1713
18750.000000	53.133	-60.3191
19000.000000	52.574	-60.7678
19250.000000	52.339	-62.0993
19500.000000	52.310	-66.5519
19750.000000	51.874	-73.1886
