* Measurement data measured by REW V5.20.4
* Source: Microphone (2- KM-HIFI-384KHZ), MICROPHONE (Master Volume), R, volume: 0.250
* Format: 256k Log Swept Sine, 1 sweep at -6.0 dBFS with no timing reference
* Dated: 25 Mar, 2022 4:42:07 PM
* REW Settings:
*  C-weighting compensation: Off
*  Target level: 75.0 dB
* Note: 
* Measurement: B2F R
* Smoothing: None
* Frequency Step: 1/96 octave
* Start Frequency: 20.000 Hz
*
* Freq(Hz)	SPL(dB)	Phase(degrees)
20.000000	93.146	-178.7961
20.144928	93.145	-178.9661
20.290907	93.142	-179.1280
20.437943	93.138	-179.2803
20.586044	93.134	-179.4147
20.735220	93.130	-179.5312
20.885475	93.127	-179.6365
21.036821	93.125	-179.7300
21.189262	93.125	-179.8154
21.342808	93.128	-179.8993
21.497467	93.133	-179.9801
21.653246	93.140	179.9323
21.810154	93.148	179.8389
21.968201	93.157	179.7331
22.127390	93.166	179.6073
22.287735	93.174	179.4678
22.449242	93.179	179.3199
22.611917	93.183	179.1633
22.775772	93.183	179.0110
22.940815	93.179	178.8615
23.107054	93.173	178.7275
23.274498	93.164	178.6106
23.443153	93.153	178.5186
23.613033	93.142	178.4608
23.784142	93.133	178.4296
23.956491	93.127	178.4240
24.130091	93.124	178.4368
24.304947	93.127	178.4525
24.481071	93.134	178.4688
24.658470	93.146	178.4644
24.837156	93.161	178.4395
25.017136	93.178	178.3737
25.198421	93.195	178.2696
25.381020	93.210	178.1302
25.564941	93.221	177.9573
25.750195	93.226	177.7712
25.936790	93.225	177.5729
26.124741	93.219	177.3832
26.314051	93.208	177.2040
26.504732	93.193	177.0585
26.696796	93.176	176.9431
26.890253	93.159	176.8600
27.085112	93.142	176.8014
27.281382	93.129	176.7552
27.479073	93.120	176.7140
27.678198	93.114	176.6682
27.878765	93.111	176.6097
28.080786	93.109	176.5320
28.284271	93.107	176.4396
28.489231	93.105	176.3328
28.695675	93.101	176.2251
28.903616	93.097	176.1168
29.113064	93.093	176.0125
29.324028	93.090	175.9091
29.536524	93.089	175.8069
29.750557	93.090	175.6939
29.966141	93.093	175.5664
30.183289	93.096	175.4116
30.402010	93.098	175.2346
30.622314	93.097	175.0404
30.844217	93.091	174.8470
31.067726	93.079	174.6624
31.292856	93.064	174.5112
31.519617	93.048	174.3965
31.748020	93.034	174.3292
31.978081	93.024	174.2881
32.209808	93.021	174.2623
32.443211	93.024	174.2200
32.678310	93.031	174.1446
32.915108	93.039	174.0248
33.153625	93.043	173.8607
33.393871	93.039	173.6782
33.635857	93.021	173.4985
33.879597	93.002	173.3654
34.125103	92.981	173.2884
34.372387	92.962	173.2778
34.621464	92.951	173.3137
34.872345	92.950	173.3597
35.125042	92.958	173.3839
35.379574	92.973	173.3420
35.635948	92.986	173.2360
35.894180	92.994	173.0735
36.154285	92.991	172.8859
36.416275	92.980	172.7200
36.680161	92.962	172.5970
36.945961	92.944	172.5343
37.213688	92.932	172.5099
37.483353	92.927	172.4915
37.754974	92.929	172.4526
38.028561	92.932	172.3660
38.304131	92.930	172.2364
38.581699	92.922	172.0928
38.861279	92.907	171.9637
39.142883	92.889	171.8776
39.426529	92.874	171.8403
39.712231	92.865	171.8289
40.000000	92.864	171.8131
40.289856	92.870	171.7603
40.581814	92.878	171.6513
40.875885	92.881	171.4977
41.172089	92.879	171.3227
41.470440	92.870	171.1516
41.770950	92.857	171.0054
42.073643	92.843	170.8885
42.378525	92.830	170.7889
42.685616	92.818	170.6976
42.994934	92.806	170.6100
43.306492	92.794	170.5294
43.620308	92.781	170.4642
43.936401	92.769	170.4199
44.254780	92.761	170.3876
44.575470	92.756	170.3514
44.898483	92.755	170.2946
45.223835	92.753	170.2073
45.551544	92.750	170.0939
45.881630	92.742	169.9694
46.214108	92.731	169.8503
46.548996	92.718	169.7480
46.886307	92.705	169.6643
47.226067	92.693	169.5880
47.568283	92.683	169.5068
47.912983	92.673	169.4146
48.260181	92.663	169.3134
48.609894	92.650	169.2172
48.962143	92.637	169.1381
49.316940	92.626	169.0757
49.674313	92.619	169.0153
50.034271	92.617	168.9335
50.396843	92.614	168.8146
50.762039	92.606	168.6670
51.129883	92.592	168.5219
51.500389	92.574	168.4161
51.873581	92.556	168.3651
52.249481	92.546	168.3453
52.628101	92.544	168.3113
53.009464	92.545	168.2273
53.393593	92.542	168.0945
53.780506	92.530	167.9525
54.170223	92.513	167.8445
54.562763	92.496	167.7820
54.958145	92.485	167.7358
55.356396	92.480	167.6601
55.757530	92.472	167.5372
56.161572	92.458	167.3922
56.568542	92.436	167.2738
56.978462	92.412	167.2127
57.391350	92.395	167.1925
57.807232	92.387	167.1651
58.226128	92.382	167.0900
58.648056	92.375	166.9675
59.073048	92.360	166.8339
59.501114	92.340	166.7277
59.932281	92.317	166.6610
60.366577	92.301	166.6131
60.804020	92.289	166.5612
61.244629	92.278	166.5003
61.688435	92.268	166.4379
62.135452	92.259	166.3724
62.585712	92.250	166.2885
63.039234	92.239	166.1824
63.496040	92.223	166.0776
63.956161	92.204	166.0060
64.419617	92.190	165.9571
64.886421	92.181	165.8807
65.356621	92.169	165.7510
65.830215	92.146	165.6200
66.307251	92.117	165.5701
66.787743	92.099	165.6032
67.271713	92.099	165.6096
67.759193	92.103	165.4877
68.250206	92.092	165.2774
68.744774	92.062	165.1219
69.242928	92.032	165.0967
69.744690	92.018	165.1217
70.250084	92.015	165.0737
70.759148	92.006	164.9476
71.271896	91.985	164.8349
71.788361	91.963	164.7839
72.308571	91.947	164.7484
72.832550	91.931	164.6876
73.360321	91.911	164.6322
73.891922	91.892	164.6126
74.427376	91.881	164.5892
74.966705	91.872	164.5180
75.509949	91.859	164.4204
76.057121	91.844	164.3332
76.608261	91.831	164.2324
77.163399	91.816	164.0865
77.722557	91.789	163.9481
78.285767	91.758	163.8969
78.853058	91.737	163.9149
79.424461	91.730	163.8983
80.000000	91.721	163.7975
80.579712	91.701	163.6816
81.163628	91.677	163.6284
81.751770	91.660	163.6119
82.344177	91.648	163.5515
82.940880	91.629	163.4355
83.541901	91.600	163.3506
84.147285	91.573	163.3491
84.757050	91.559	163.3462
85.371231	91.546	163.2543
85.989868	91.519	163.1361
86.612984	91.488	163.1129
87.240616	91.471	163.1407
87.872803	91.463	163.0965
88.509560	91.447	162.9982
89.150940	91.426	162.9445
89.796967	91.412	162.9113
90.447670	91.398	162.8301
91.103088	91.377	162.7480
91.763260	91.356	162.7186
92.428215	91.341	162.6833
93.097992	91.322	162.6092
93.772614	91.298	162.5632
94.452133	91.277	162.5609
95.136566	91.262	162.5212
95.825966	91.243	162.4376
96.520363	91.216	162.3787
97.219788	91.191	162.3428
97.924286	91.165	162.2999
98.633881	91.134	162.3011
99.348625	91.112	162.3578
100.068542	91.103	162.3641
100.793686	91.092	162.2740
101.524078	91.068	162.1664
102.259766	91.040	162.1072
103.000778	91.015	162.0946
103.747162	90.998	162.0650
104.498962	90.977	161.9819
105.256203	90.947	161.9487
106.018929	90.926	161.9879
106.787186	90.916	161.9504
107.561012	90.893	161.8662
108.340446	90.867	161.8536
109.125526	90.846	161.8262
109.916290	90.816	161.7856
110.712791	90.788	161.8400
111.515060	90.778	161.8523
112.323143	90.759	161.7247
113.137085	90.719	161.6535
113.956924	90.686	161.7057
114.782700	90.669	161.7174
115.614464	90.649	161.6635
116.452255	90.625	161.6207
117.296112	90.599	161.5812
118.146095	90.571	161.5901
119.002228	90.554	161.6196
119.864563	90.536	161.5707
120.733154	90.509	161.5432
121.608040	90.485	161.5471
122.489258	90.457	161.5453
123.376869	90.434	161.6021
124.270905	90.420	161.5658
125.171425	90.388	161.5105
126.078468	90.363	161.5510
126.992081	90.340	161.4940
127.912323	90.301	161.5410
128.839233	90.291	161.6351
129.772842	90.275	161.5407
130.713242	90.241	161.5449
131.660431	90.222	161.5600
132.614502	90.195	161.5302
133.575485	90.170	161.5509
134.543427	90.146	161.5390
135.518387	90.120	161.5442
136.500412	90.092	161.5172
137.489548	90.056	161.5764
138.485855	90.039	161.6775
139.489380	90.023	161.6673
140.500168	89.998	161.6568
141.518295	89.971	161.6564
142.543793	89.940	161.6720
143.576721	89.914	161.7336
144.617142	89.894	161.7416
145.665100	89.863	161.7271
146.720642	89.834	161.7999
147.783844	89.814	161.8303
148.854752	89.789	161.8583
149.933411	89.768	161.8868
151.019897	89.740	161.8728
152.114243	89.704	161.9381
153.216522	89.684	161.9792
154.326797	89.647	161.9699
155.445114	89.624	162.0853
156.571533	89.599	162.0087
157.706116	89.553	162.1379
158.848923	89.544	162.2335
160.000000	89.517	162.2173
161.159424	89.484	162.2365
162.327255	89.445	162.3147
163.503540	89.419	162.4083
164.688354	89.395	162.4647
165.881760	89.367	162.4617
167.083801	89.332	162.5649
168.294571	89.313	162.6233
169.514099	89.279	162.6821
170.742462	89.249	162.7690
171.979736	89.225	162.9076
173.225967	89.207	162.8614
174.481232	89.167	162.8734
175.745605	89.136	162.9171
177.019119	89.118	163.0241
178.301880	89.093	163.0013
179.593933	89.061	163.1898
180.895340	89.041	163.2568
182.206177	89.007	163.4207
183.526520	88.988	163.4569
184.856430	88.948	163.5002
186.195984	88.928	163.5919
187.545227	88.907	163.6232
188.904266	88.889	163.7070
190.273132	88.874	163.7505
191.651932	88.837	163.8072
193.040726	88.816	163.9710
194.439575	88.786	163.9759
195.848572	88.757	164.1132
197.267761	88.735	164.1707
198.697250	88.713	164.3304
200.137085	88.701	164.4075
201.587372	88.675	164.5134
203.048157	88.648	164.6155
204.519531	88.628	164.7330
206.001556	88.599	164.7794
207.494324	88.579	164.8968
208.997925	88.550	164.9412
210.512405	88.527	165.1953
212.037857	88.521	165.2220
213.574371	88.486	165.3362
215.122025	88.465	165.4888
216.680893	88.438	165.5597
218.251053	88.410	165.6727
219.832581	88.389	165.8349
221.425583	88.364	165.8859
223.030121	88.339	166.0381
224.646286	88.309	166.1666
226.274170	88.287	166.2873
227.913849	88.260	166.4077
229.565399	88.242	166.5345
231.228928	88.210	166.6055
232.904510	88.187	166.7766
234.592224	88.163	166.9117
236.292191	88.139	167.0298
238.004456	88.117	167.1773
239.729126	88.102	167.2794
241.466309	88.076	167.5109
243.216080	88.051	167.5863
244.978516	88.027	167.8257
246.753738	87.995	167.9065
248.541809	87.967	168.0596
250.342850	87.956	168.1797
252.156937	87.926	168.3098
253.984161	87.910	168.5096
255.824646	87.885	168.6090
257.678467	87.857	168.8029
259.545685	87.835	168.8688
261.426483	87.814	169.0887
263.320862	87.791	169.2759
265.229004	87.774	169.4016
267.150970	87.743	169.5867
269.086853	87.742	169.7915
271.036774	87.713	169.9612
273.000824	87.686	170.1475
274.979095	87.652	170.3482
276.971710	87.638	170.4010
278.978760	87.608	170.6978
281.000336	87.604	170.8322
283.036591	87.559	171.0254
285.087585	87.546	171.2407
287.153442	87.520	171.4722
289.234283	87.502	171.6157
291.330200	87.473	171.9181
293.441284	87.473	172.1648
295.567688	87.441	172.3274
297.709503	87.426	172.5557
299.866821	87.403	172.7047
302.039795	87.395	173.0032
304.228485	87.380	173.2497
306.433044	87.352	173.4843
308.653595	87.339	173.6088
310.890228	87.328	174.0059
313.143066	87.318	174.1050
315.412231	87.312	174.3140
317.697845	87.303	174.6122
320.000000	87.296	174.7101
322.318848	87.288	174.9592
324.654510	87.274	175.0320
327.007080	87.263	175.2758
329.376709	87.255	175.4069
331.763519	87.240	175.5259
334.167603	87.213	175.7812
336.589142	87.197	175.9216
339.028198	87.188	175.9957
341.484924	87.171	176.2657
343.959473	87.152	176.4408
346.451935	87.134	176.6282
348.962463	87.110	176.8178
351.491211	87.093	177.0179
354.038239	87.089	177.2095
356.603760	87.069	177.3972
359.187866	87.051	177.6345
361.790680	87.039	177.8599
364.412354	87.024	178.0417
367.053040	87.007	178.2468
369.712860	86.993	178.4720
372.391968	86.982	178.7075
375.090454	86.961	178.9353
377.808533	86.952	179.1561
380.546265	86.936	179.3293
383.303864	86.919	179.5844
386.081451	86.905	179.8075
388.879150	86.892	-179.9333
391.697144	86.882	-179.7470
394.535522	86.868	-179.5110
397.394501	86.851	-179.2908
400.274170	86.830	-179.0719
403.174744	86.819	-178.7743
406.096313	86.804	-178.5031
409.039062	86.798	-178.3034
412.003113	86.788	-178.1215
414.988647	86.779	-177.9149
417.995850	86.755	-177.6270
421.024811	86.740	-177.3719
424.075714	86.723	-177.1641
427.148743	86.716	-176.9005
430.244049	86.701	-176.6438
433.361786	86.682	-176.3574
436.502106	86.674	-176.1171
439.665161	86.659	-175.8202
442.851166	86.646	-175.5545
446.060242	86.644	-175.3248
449.292572	86.630	-175.0694
452.548340	86.612	-174.8213
455.827698	86.602	-174.5773
459.130798	86.585	-174.3872
462.457855	86.570	-174.1544
465.809021	86.556	-173.8490
469.184448	86.545	-173.5982
472.584381	86.540	-173.3204
476.008911	86.529	-173.0629
479.458252	86.515	-172.7159
482.932617	86.502	-172.3783
486.432159	86.480	-172.0714
489.957031	86.467	-171.8141
493.507477	86.457	-171.5350
497.083618	86.452	-171.3126
500.685699	86.439	-171.0417
504.313873	86.419	-170.7308
507.968323	86.407	-170.4214
511.649292	86.405	-170.1256
515.356934	86.411	-169.7799
519.091370	86.407	-169.4539
522.852966	86.400	-169.1035
526.641724	86.392	-168.8879
530.458008	86.388	-168.6077
534.301941	86.385	-168.3242
538.173706	86.377	-167.9919
542.073547	86.366	-167.6986
546.001648	86.358	-167.3610
549.958191	86.349	-167.0923
553.943420	86.354	-166.7073
557.957520	86.341	-166.3087
562.000671	86.339	-166.0146
566.073181	86.331	-165.5572
570.175171	86.317	-165.2650
574.306885	86.308	-164.8997
578.468567	86.301	-164.6102
582.660400	86.303	-164.3049
586.882568	86.297	-163.9575
591.135376	86.301	-163.6263
595.419006	86.301	-163.2405
599.733643	86.291	-162.8688
604.079590	86.290	-162.5109
608.456970	86.290	-162.1409
612.866089	86.285	-161.7804
617.307190	86.283	-161.4444
621.780457	86.284	-161.0311
626.286133	86.277	-160.6311
630.824463	86.277	-160.3544
635.395691	86.284	-159.9253
640.000000	86.280	-159.5338
644.637695	86.279	-159.1907
649.309021	86.285	-158.7694
654.014160	86.278	-158.3539
658.753418	86.277	-157.9990
663.527039	86.281	-157.5641
668.335205	86.280	-157.1926
673.178284	86.281	-156.7915
678.056396	86.283	-156.4156
682.969849	86.285	-155.9687
687.918945	86.295	-155.5854
692.903870	86.292	-155.1373
697.924927	86.298	-154.7094
702.982422	86.305	-154.3209
708.076477	86.303	-153.8729
713.207520	86.311	-153.4204
718.375732	86.322	-153.0348
723.581360	86.322	-152.5711
728.824707	86.336	-152.1232
734.106079	86.345	-151.6927
739.425720	86.353	-151.2496
744.783936	86.358	-150.7981
750.180908	86.375	-150.3248
755.617065	86.383	-149.9007
761.092529	86.399	-149.4762
766.607727	86.408	-149.0221
772.162903	86.415	-148.5434
777.758301	86.430	-148.0508
783.394287	86.443	-147.5558
789.071045	86.462	-147.0836
794.789001	86.490	-146.6231
800.548340	86.507	-146.1717
806.349487	86.530	-145.6759
812.192627	86.549	-145.2520
818.078125	86.571	-144.7553
824.006226	86.600	-144.3376
829.977295	86.628	-143.8529
835.991699	86.655	-143.3940
842.049622	86.687	-142.8678
848.151428	86.712	-142.3575
854.297485	86.736	-141.8909
860.488098	86.765	-141.3789
866.723572	86.792	-140.9517
873.004211	86.828	-140.5002
879.330322	86.860	-139.9933
885.702332	86.892	-139.4982
892.120483	86.923	-139.0892
898.585144	86.968	-138.5765
905.096680	87.004	-138.0855
911.655396	87.046	-137.7042
918.261597	87.080	-137.1759
924.915710	87.124	-136.7277
931.618042	87.170	-136.3330
938.368896	87.212	-135.9030
945.168762	87.258	-135.4473
952.017822	87.302	-134.9755
958.916504	87.349	-134.5979
965.865234	87.404	-134.1438
972.864319	87.450	-133.7348
979.914062	87.503	-133.3135
987.014954	87.554	-132.9316
994.167236	87.612	-132.5449
1001.371399	87.670	-132.1256
1008.627747	87.719	-131.7649
1015.936646	87.782	-131.3714
1023.298584	87.841	-131.0076
1030.713867	87.897	-130.6679
1038.182739	87.956	-130.2983
1045.705933	88.012	-129.9662
1053.283447	88.075	-129.6490
1060.916016	88.127	-129.2953
1068.603882	88.190	-128.9551
1076.347412	88.248	-128.6639
1084.147095	88.301	-128.3372
1092.003296	88.355	-128.0407
1099.916382	88.410	-127.7526
1107.886841	88.455	-127.4630
1115.915039	88.506	-127.1649
1124.001343	88.558	-126.8703
1132.146362	88.612	-126.6212
1140.350342	88.661	-126.3497
1148.613770	88.704	-126.0732
1156.937134	88.758	-125.8322
1165.320801	88.807	-125.5775
1173.765137	88.861	-125.3266
1182.270752	88.906	-125.0481
1190.838013	88.957	-124.7997
1199.467285	89.002	-124.5649
1208.159180	89.052	-124.3112
1216.913940	89.115	-124.0802
1225.732178	89.179	-123.8257
1234.614380	89.249	-123.6052
1243.560913	89.321	-123.3700
1252.572266	89.387	-123.1059
1261.648926	89.451	-122.9049
1270.791382	89.519	-122.6604
1280.000000	89.583	-122.4137
1289.275391	89.655	-122.1673
1298.618042	89.719	-121.9558
1308.028320	89.787	-121.7339
1317.506836	89.856	-121.4979
1327.054077	89.922	-121.2763
1336.670410	89.988	-121.0433
1346.356567	90.049	-120.7895
1356.112793	90.120	-120.5789
1365.939697	90.232	-120.3369
1375.837891	90.300	-120.1270
1385.807739	90.369	-119.8795
1395.849854	90.441	-119.6471
1405.964844	90.508	-119.4376
1416.152954	90.576	-119.2117
1426.415039	90.649	-118.9725
1436.751465	90.718	-118.7318
1447.162720	90.786	-118.5021
1457.649414	90.852	-118.2594
1468.212158	90.923	-118.0272
1478.851440	90.994	-117.8228
1489.567871	91.061	-117.5564
1500.361816	91.127	-117.3251
1511.234131	91.195	-117.0705
1522.185059	91.260	-116.8279
1533.215454	91.322	-116.5773
1544.325806	91.379	-116.3238
1555.516602	91.435	-116.0533
1566.788574	91.491	-115.7947
1578.142090	91.548	-115.5333
1589.578003	91.608	-115.2540
1601.096680	91.665	-114.9833
1612.698975	91.721	-114.6894
1624.385254	91.780	-114.3944
1636.156250	91.841	-114.1336
1648.012451	91.901	-113.8327
1659.954590	91.963	-113.5394
1671.983398	92.027	-113.2374
1684.099243	92.090	-112.9232
1696.302856	92.155	-112.6253
1708.594971	92.220	-112.3028
1720.976196	92.287	-111.9935
1733.447144	92.355	-111.6664
1746.008423	92.424	-111.3312
1758.660645	92.495	-111.0454
1771.404663	92.568	-110.6868
1784.240967	92.644	-110.3573
1797.170288	92.718	-110.0301
1810.193359	92.795	-109.6905
1823.310791	92.875	-109.3844
1836.523193	92.959	-109.0427
1849.831421	93.043	-108.7047
1863.236084	93.124	-108.3785
1876.737793	93.206	-108.0755
1890.337524	93.296	-107.7216
1904.035645	93.387	-107.4084
1917.833008	93.479	-107.0607
1931.730469	93.574	-106.7575
1945.728638	93.668	-106.4304
1959.828125	93.763	-106.1162
1974.029907	93.861	-105.8213
1988.334473	93.963	-105.4992
2002.742798	94.066	-105.2189
2017.255493	94.169	-104.9497
2031.873291	94.280	-104.6454
2046.597168	94.387	-104.3862
2061.427734	94.499	-104.0922
2076.365479	94.615	-103.8552
2091.411865	94.729	-103.6167
2106.566895	94.852	-103.3871
2121.832031	94.973	-103.1669
2137.207764	95.102	-102.9557
2152.694824	95.225	-102.7589
2168.294189	95.355	-102.5874
2184.006592	95.483	-102.4584
2199.832764	95.619	-102.3001
2215.773682	95.755	-102.1878
2231.830078	95.894	-102.0809
2248.002686	96.034	-102.0076
2264.292725	96.177	-101.9559
2280.700684	96.325	-101.9253
2297.227539	96.473	-101.9339
2313.874268	96.622	-101.9724
2330.641602	96.775	-102.0285
2347.530273	96.926	-102.1223
2364.541504	97.083	-102.2497
2381.676025	97.242	-102.4050
2398.934570	97.400	-102.6100
2416.318359	97.555	-102.8534
2433.827881	97.720	-103.1482
2451.464355	97.881	-103.4693
2469.228760	98.043	-103.8457
2487.121826	98.204	-104.2524
2505.144531	98.363	-104.7439
2523.297852	98.522	-105.2681
2541.582764	98.680	-105.8514
2560.000000	98.835	-106.4981
2578.550781	98.984	-107.1817
2597.236084	99.134	-107.9245
2616.056641	99.276	-108.7140
2635.013672	99.414	-109.5745
2654.108154	99.544	-110.4830
2673.340820	99.669	-111.4455
2692.713135	99.785	-112.4716
2712.225586	99.892	-113.5425
2731.879395	99.990	-114.6647
2751.675781	100.078	-115.8202
2771.615479	100.153	-116.9882
2791.699707	100.218	-118.2142
2811.929688	100.269	-119.4845
2832.305908	100.305	-120.7471
2852.830078	100.331	-122.0127
2873.502930	100.342	-123.2913
2894.325439	100.338	-124.5646
2915.298828	100.320	-125.8253
2936.424316	100.289	-127.0468
2957.702881	100.246	-128.2536
2979.135742	100.189	-129.4310
3000.723633	100.117	-130.5491
3022.468262	100.036	-131.6174
3044.370117	99.944	-132.6310
3066.430908	99.842	-133.5921
3088.651611	99.732	-134.4928
3111.033203	99.611	-135.3208
3133.577148	99.486	-136.0861
3156.284180	99.353	-136.7798
3179.156006	99.215	-137.3863
3202.193359	99.073	-137.9302
3225.397949	98.931	-138.4061
3248.770508	98.783	-138.8045
3272.312500	98.636	-139.1411
3296.024902	98.487	-139.3877
3319.909180	98.340	-139.5860
3343.966797	98.191	-139.7062
3368.198486	98.048	-139.7693
3392.605713	97.901	-139.7576
3417.189941	97.761	-139.7045
3441.952393	97.623	-139.5919
3466.894287	97.488	-139.4305
3492.016846	97.356	-139.2109
3517.321289	97.229	-138.9534
3542.809326	97.103	-138.6735
3568.481934	96.981	-138.3204
3594.340576	96.863	-137.9186
3620.386719	96.744	-137.4741
3646.621582	96.636	-137.0034
3673.046387	96.529	-136.5064
3699.662842	96.423	-135.9594
3726.472168	96.326	-135.3374
3753.475586	96.225	-134.7481
3780.675049	96.140	-134.1059
3808.071289	96.051	-133.4029
3835.666016	95.970	-132.6974
3863.460938	95.891	-131.9676
3891.457275	95.819	-131.1707
3919.656250	95.752	-130.3894
3948.059814	95.686	-129.5561
3976.668945	95.626	-128.7060
4005.485596	95.575	-127.8313
4034.510986	95.528	-126.9040
4063.746582	95.487	-126.0171
4093.194336	95.449	-125.0716
4122.855469	95.419	-124.1009
4152.730957	95.393	-123.0786
4182.823730	95.375	-122.1068
4213.133789	95.361	-121.1154
4243.664062	95.359	-120.0840
4274.415527	95.354	-119.0383
4305.389648	95.361	-117.9796
4336.588379	95.381	-116.9156
4368.013184	95.400	-115.8651
4399.665527	95.427	-114.7970
4431.547363	95.463	-113.7447
4463.660156	95.502	-112.6478
4496.005371	95.550	-111.5505
4528.585449	95.602	-110.4813
4561.401367	95.660	-109.3763
4594.455078	95.727	-108.2438
4627.748535	95.796	-107.1198
4661.283203	95.878	-105.9984
4695.060547	95.967	-104.8544
4729.083008	96.067	-103.7271
4763.352051	96.178	-102.6019
4797.869141	96.295	-101.4483
4832.636719	96.427	-100.3215
4867.655762	96.561	-99.2297
4902.928711	96.704	-98.1113
4938.457520	96.861	-97.0493
4974.243652	97.026	-95.9412
5010.289062	97.201	-94.9291
5046.595703	97.392	-93.8442
5083.165527	97.597	-92.8657
5120.000000	97.814	-91.8675
5157.101562	98.045	-90.9102
5194.472168	98.304	-89.9788
5232.113281	98.576	-89.1419
5270.027344	98.861	-88.3661
5308.216309	99.176	-87.6681
5346.681641	99.507	-87.0305
5385.426270	99.866	-86.5727
5424.451172	100.247	-86.2234
5463.758789	100.646	-86.0556
5503.351562	101.068	-86.1101
5543.230957	101.520	-86.4384
5583.399414	101.990	-87.1377
5623.859375	102.485	-88.1067
5664.611816	102.964	-89.6614
5705.660156	103.487	-91.4960
5747.005859	103.982	-94.1969
5788.650879	104.426	-97.5133
5830.597656	104.779	-101.4538
5872.848633	104.998	-105.7351
5915.405762	105.101	-110.4527
5958.271484	105.143	-115.2884
6001.447266	105.090	-120.3196
6044.936523	104.958	-125.0135
6088.740234	104.772	-129.2308
6132.861816	104.480	-132.9110
6177.303223	104.092	-136.0251
6222.066406	103.667	-138.4724
6267.154297	103.161	-140.3861
6312.568359	102.668	-142.0502
6358.312012	102.201	-143.1020
6404.386719	101.723	-143.8562
6450.795898	101.266	-144.2707
6497.541016	100.843	-144.2722
6544.625000	100.437	-144.0360
6592.049805	100.054	-143.5292
6639.818359	99.710	-142.8761
6687.933594	99.395	-142.0737
6736.396973	99.101	-141.1035
6785.211426	98.848	-140.0020
6834.379883	98.618	-138.8040
6883.904785	98.433	-137.5387
6933.788574	98.303	-136.1727
6984.033691	98.198	-134.7954
7034.642578	98.128	-133.3552
7085.618652	98.092	-131.9242
7136.963867	98.085	-130.4808
7188.681152	98.112	-129.0947
7240.773438	98.172	-127.7463
7293.243164	98.264	-126.4663
7346.092773	98.385	-125.2410
7399.325684	98.540	-124.1652
7452.944336	98.735	-123.2071
7506.951172	98.965	-122.4585
7561.350098	99.230	-121.9233
7616.142578	99.533	-121.6754
7671.332031	99.869	-121.7388
7726.921875	100.352	-122.2736
7782.914551	100.700	-123.2966
7839.312500	101.062	-124.9620
7896.119629	101.416	-127.3260
7953.337891	101.740	-130.5045
8010.971191	101.994	-134.5646
8069.021973	102.133	-139.3926
8127.493164	102.114	-144.8364
8186.388672	101.900	-150.5457
8245.710938	101.488	-156.0822
8305.461914	100.902	-161.1326
8365.647461	100.165	-165.3342
8426.267578	99.341	-168.5841
8487.328125	98.452	-170.9178
8548.831055	97.542	-172.3217
8610.779297	96.617	-172.7934
8673.176758	95.712	-172.4337
8736.026367	94.829	-171.1664
8799.331055	94.025	-168.9670
8863.094727	93.383	-165.9898
8927.320312	92.951	-163.1596
8992.010742	92.627	-161.2675
9057.170898	92.277	-160.2008
9122.802734	91.823	-159.2849
9188.910156	91.333	-158.0765
9255.497070	90.827	-156.5179
9322.566406	90.328	-154.7161
9390.121094	89.845	-152.6102
9458.166016	89.383	-150.2603
9526.704102	88.951	-147.6848
9595.738281	88.562	-145.1753
9665.273438	88.173	-142.2162
9735.311523	87.855	-139.4006
9805.857422	87.554	-136.5297
9876.915039	87.304	-133.4720
9948.487305	87.049	-130.2371
10020.578125	86.871	-127.1889
10093.191406	86.718	-123.9771
10166.331055	86.598	-120.7494
10240.000000	86.525	-117.5601
10314.203125	86.494	-114.3677
10388.944336	86.504	-111.2039
10464.226562	86.579	-108.0033
10540.054688	86.672	-105.2919
10616.432617	86.849	-102.5624
10693.363281	87.084	-100.0678
10770.852539	87.366	-97.9212
10848.902344	87.717	-96.1282
10927.517578	88.152	-95.0397
11006.703125	88.629	-94.7722
11086.461914	89.145	-95.3775
11166.798828	89.658	-97.3303
11247.718750	90.084	-100.7848
11329.223633	90.324	-105.5878
11411.320312	90.289	-111.4791
11494.011719	89.910	-117.3439
11577.301758	89.236	-122.1785
11661.195312	88.355	-125.5028
11745.697266	87.413	-127.3540
11830.811523	86.465	-127.6814
11916.542969	85.577	-126.8591
12002.894531	84.771	-125.5909
12089.873047	84.000	-123.5166
12177.480469	83.311	-121.3610
12265.723633	82.620	-118.3233
12354.606445	82.040	-115.3237
12444.132812	81.548	-111.8563
12534.308594	81.122	-108.3269
12625.136719	80.747	-104.6700
12716.624023	80.429	-100.9087
12808.773438	80.128	-97.3811
12901.591797	79.884	-93.8105
12995.082031	79.663	-90.2178
13089.250000	79.471	-86.7133
13184.099609	79.255	-83.4141
13279.636719	79.037	-79.7816
13375.867188	78.967	-76.4081
13472.793945	78.848	-72.6366
13570.422852	78.759	-69.1826
13668.759766	78.676	-65.6182
13767.809570	78.670	-62.1878
13867.577148	78.711	-58.6875
13968.067383	78.715	-55.1080
14069.285156	78.789	-51.6041
14171.237305	78.880	-47.8131
14273.927734	78.945	-44.6168
14377.362305	79.145	-40.9748
14481.546875	79.313	-37.4043
14586.486328	79.556	-33.8327
14692.185547	79.811	-30.3591
14798.651367	80.149	-27.0430
14905.888672	80.531	-23.6321
15013.902344	81.007	-20.4434
15122.700195	81.560	-17.6188
15232.285156	82.231	-15.0255
15342.664062	82.978	-12.9296
15453.843750	83.849	-11.7779
15565.829102	84.828	-11.7270
15678.625000	85.907	-13.1419
15792.239258	87.054	-17.0496
15906.675781	88.138	-23.5536
16021.942383	88.916	-33.3362
16138.043945	89.071	-45.3366
16254.986328	88.515	-56.6325
16372.777344	87.453	-65.0609
16491.421875	86.199	-70.8929
16610.923828	84.973	-73.3206
16731.294922	83.836	-74.4962
16852.535156	82.815	-74.0946
16974.656250	81.927	-72.6212
17097.662109	81.196	-70.8907
17221.558594	80.578	-67.9091
17346.353516	80.105	-65.7900
17472.052734	79.738	-63.2963
17598.662109	79.493	-61.1084
17726.189453	79.291	-59.5585
17854.640625	79.104	-58.5529
17984.021484	78.834	-58.2790
18114.341797	78.449	-57.1803
18245.605469	78.130	-56.0788
18377.820312	77.842	-53.9808
18510.994141	77.548	-52.3163
18645.132812	77.399	-49.4553
18780.242188	77.376	-46.4023
18916.332031	77.480	-43.4002
19053.408203	77.911	-41.7306
19191.476562	78.258	-41.3053
19330.546875	78.692	-42.8341
19470.623047	78.940	-44.6233
19611.714844	79.108	-46.3549
19753.830078	79.329	-48.6294
19896.974609	79.521	-51.3939
