* Measurement data measured by REW V5.20.4
* Source: Microphone (2- KM-HIFI-384KHZ), MICROPHONE (Master Volume), L, volume: 0.250
* Format: 256k Log Swept Sine, 1 sweep at -6.0 dBFS with no timing reference
* Dated: 25 Mar, 2022 4:43:58 PM
* REW Settings:
*  C-weighting compensation: Off
*  Target level: 75.0 dB
* Note: 
* Measurement: B2F L
* Smoothing: None
* Frequency Step: 1/96 octave
* Start Frequency: 20.000 Hz
*
* Freq(Hz)	SPL(dB)	Phase(degrees)
20.000000	92.476	-176.0666
20.144928	92.479	-176.1818
20.290907	92.482	-176.3052
20.437943	92.486	-176.4347
20.586044	92.489	-176.5693
20.735220	92.493	-176.7093
20.885475	92.496	-176.8542
21.036821	92.497	-177.0063
21.189262	92.498	-177.1608
21.342808	92.498	-177.3119
21.497467	92.498	-177.4609
21.653246	92.496	-177.5999
21.810154	92.494	-177.7273
21.968201	92.491	-177.8462
22.127390	92.489	-177.9572
22.287735	92.488	-178.0602
22.449242	92.488	-178.1551
22.611917	92.489	-178.2424
22.775772	92.492	-178.3310
22.940815	92.496	-178.4197
23.107054	92.501	-178.5174
23.274498	92.507	-178.6272
23.443153	92.513	-178.7457
23.613033	92.518	-178.8733
23.784142	92.522	-179.0069
23.956491	92.524	-179.1442
24.130091	92.524	-179.2818
24.304947	92.522	-179.4109
24.481071	92.519	-179.5310
24.658470	92.515	-179.6316
24.837156	92.510	-179.7151
25.017136	92.507	-179.7867
25.198421	92.506	-179.8471
25.381020	92.508	-179.9071
25.564941	92.512	-179.9674
25.750195	92.518	179.9578
25.936790	92.525	179.8686
26.124741	92.531	179.7531
26.314051	92.536	179.6153
26.504732	92.538	179.4678
26.696796	92.535	179.3141
26.890253	92.527	179.1708
27.085112	92.514	179.0408
27.281382	92.500	178.9364
27.479073	92.486	178.8561
27.678198	92.474	178.8063
27.878765	92.465	178.7688
28.080786	92.461	178.7383
28.284271	92.460	178.6938
28.489231	92.462	178.6312
28.695675	92.465	178.5418
28.903616	92.467	178.4281
29.113064	92.467	178.2938
29.324028	92.463	178.1519
29.536524	92.456	178.0151
29.750557	92.447	177.8934
29.966141	92.437	177.7903
30.183289	92.431	177.6971
30.402010	92.427	177.6076
30.622314	92.426	177.5105
30.844217	92.425	177.3959
31.067726	92.423	177.2591
31.292856	92.419	177.1069
31.519617	92.410	176.9531
31.748020	92.396	176.8163
31.978081	92.381	176.7141
32.209808	92.365	176.6501
32.443211	92.354	176.6247
32.678310	92.349	176.6131
32.915108	92.352	176.6002
33.153625	92.361	176.5440
33.393871	92.371	176.4399
33.635857	92.374	176.2804
33.879597	92.374	176.0897
34.125103	92.368	175.8958
34.372387	92.353	175.7264
34.621464	92.333	175.6228
34.872345	92.314	175.5828
35.125042	92.302	175.6034
35.379574	92.300	175.6460
35.635948	92.309	175.6727
35.894180	92.325	175.6567
36.154285	92.344	175.5690
36.416275	92.359	175.4232
36.680161	92.367	175.2402
36.945961	92.366	175.0494
37.213688	92.358	174.8863
37.483353	92.347	174.7643
37.754974	92.337	174.6855
38.028561	92.330	174.6367
38.304131	92.328	174.5861
38.581699	92.328	174.5158
38.861279	92.330	174.4149
39.142883	92.330	174.2803
39.426529	92.325	174.1292
39.712231	92.314	173.9837
40.000000	92.298	173.8614
40.289856	92.282	173.7739
40.581814	92.267	173.7235
40.875885	92.257	173.6943
41.172089	92.253	173.6630
41.470440	92.253	173.6096
41.770950	92.255	173.5215
42.073643	92.255	173.3973
42.378525	92.251	173.2546
42.685616	92.242	173.1191
42.994934	92.231	173.0075
43.306492	92.220	172.9239
43.620308	92.214	172.8578
43.936401	92.212	172.7863
44.254780	92.212	172.6851
44.575470	92.210	172.5533
44.898483	92.204	172.4091
45.223835	92.192	172.2781
45.551544	92.177	172.1818
45.881630	92.164	172.1241
46.214108	92.156	172.0866
46.548996	92.152	172.0418
46.886307	92.150	171.9725
47.226067	92.146	171.8814
47.568283	92.137	171.7907
47.912983	92.126	171.7216
48.260181	92.116	171.6751
48.609894	92.109	171.6375
48.962143	92.105	171.5878
49.316940	92.101	171.5154
49.674313	92.095	171.4291
50.034271	92.085	171.3459
50.396843	92.074	171.2752
50.762039	92.065	171.2124
51.129883	92.056	171.1437
51.500389	92.048	171.0635
51.873581	92.037	170.9826
52.249481	92.026	170.9151
52.628101	92.016	170.8663
53.009464	92.010	170.8210
53.393593	92.008	170.7538
53.780506	92.005	170.6549
54.170223	91.998	170.5367
54.562763	91.987	170.4249
54.958145	91.975	170.3347
55.356396	91.966	170.2573
55.757530	91.958	170.1741
56.161572	91.951	170.0748
56.568542	91.941	169.9675
56.978462	91.928	169.8696
57.391350	91.915	169.7873
57.807232	91.904	169.7138
58.226128	91.893	169.6376
58.648056	91.882	169.5560
59.073048	91.871	169.4727
59.501114	91.859	169.3878
59.932281	91.845	169.3002
60.366577	91.831	169.2113
60.804020	91.818	169.1311
61.244629	91.806	169.0631
61.688435	91.796	168.9954
62.135452	91.788	168.9095
62.585712	91.777	168.8065
63.039234	91.761	168.7145
63.496040	91.745	168.6588
63.956161	91.733	168.6306
64.419617	91.729	168.5838
64.886421	91.725	168.4858
65.356621	91.715	168.3538
65.830215	91.695	168.2440
66.307251	91.674	168.1922
66.787743	91.658	168.1803
67.271713	91.651	168.1560
67.759193	91.644	168.0865
68.250206	91.634	167.9846
68.744774	91.619	167.8868
69.242928	91.602	167.8145
69.744690	91.588	167.7569
70.250084	91.576	167.6898
70.759148	91.565	167.6052
71.271896	91.550	167.5208
71.788361	91.534	167.4602
72.308571	91.521	167.4205
72.832550	91.513	167.3684
73.360321	91.505	167.2801
73.891922	91.489	167.1795
74.427376	91.470	167.1164
74.966705	91.453	167.1014
75.509949	91.445	167.0801
76.057121	91.438	167.0024
76.608261	91.425	166.8856
77.163399	91.404	166.7846
77.722557	91.383	166.7147
78.285767	91.364	166.6483
78.853058	91.343	166.5831
79.424461	91.323	166.5458
80.000000	91.309	166.5177
80.579712	91.300	166.4436
81.163628	91.285	166.3344
81.751770	91.262	166.2737
82.344177	91.246	166.2738
82.940880	91.241	166.2426
83.541901	91.233	166.1420
84.147285	91.214	166.0409
84.757050	91.192	165.9951
85.371231	91.173	165.9758
85.989868	91.155	165.9581
86.612984	91.141	165.9455
87.240616	91.130	165.9045
87.872803	91.117	165.8110
88.509560	91.095	165.7221
89.150940	91.073	165.6832
89.796967	91.058	165.6459
90.447670	91.044	165.5672
91.103088	91.024	165.4893
91.763260	91.003	165.4479
92.428215	90.987	165.4193
93.097992	90.971	165.3806
93.772614	90.953	165.3386
94.452133	90.933	165.3081
95.136566	90.913	165.2963
95.825966	90.896	165.2837
96.520363	90.880	165.2463
97.219788	90.862	165.1910
97.924286	90.842	165.1240
98.633881	90.818	165.0521
99.348625	90.791	165.0174
100.068542	90.771	165.0276
100.793686	90.762	165.0101
101.524078	90.755	164.9318
102.259766	90.743	164.8202
103.000778	90.720	164.7077
103.747162	90.689	164.6777
104.498962	90.668	164.7455
105.256203	90.661	164.7604
106.018929	90.646	164.6871
106.787186	90.621	164.6469
107.561012	90.597	164.6376
108.340446	90.574	164.6199
109.125526	90.553	164.6007
109.916290	90.532	164.5439
110.712791	90.505	164.5059
111.515060	90.487	164.5087
112.323143	90.471	164.4344
113.137085	90.440	164.3940
113.956924	90.420	164.4717
114.782700	90.415	164.4454
115.614464	90.389	164.3611
116.452255	90.361	164.4053
117.296112	90.349	164.4140
118.146095	90.326	164.3311
119.002228	90.292	164.3066
119.864563	90.263	164.3533
120.733154	90.248	164.3977
121.608040	90.238	164.3339
122.489258	90.210	164.2587
123.376869	90.186	164.2845
124.270905	90.168	164.2566
125.171425	90.140	164.2712
126.078468	90.128	164.3076
126.992081	90.105	164.2289
127.912323	90.076	164.2890
128.839233	90.069	164.2507
129.772842	90.030	164.1527
130.713242	90.005	164.3075
131.660431	90.005	164.2493
132.614502	89.971	164.2162
133.575485	89.960	164.3079
134.543427	89.942	164.2492
135.518387	89.914	164.3044
136.500412	89.895	164.3106
137.489548	89.868	164.3411
138.485855	89.854	164.3312
139.489380	89.824	164.2451
140.500168	89.794	164.2601
141.518295	89.766	164.2552
142.543793	89.740	164.3892
143.576721	89.741	164.4167
144.617142	89.699	164.3845
145.665100	89.683	164.7249
146.720642	89.708	164.6153
147.783844	89.657	164.4445
148.854752	89.626	164.5401
149.933411	89.596	164.4970
151.019897	89.569	164.5692
152.114243	89.550	164.5640
153.216522	89.525	164.5661
154.326797	89.504	164.6208
155.445114	89.481	164.5461
156.571533	89.431	164.6189
157.706116	89.408	164.6591
158.848923	89.367	164.7780
160.000000	89.375	164.6303
161.159424	89.275	164.5610
162.327255	89.288	165.0667
163.503540	89.291	164.8236
164.688354	89.262	164.9290
165.881760	89.238	164.9177
167.083801	89.209	165.0570
168.294571	89.184	165.0923
169.514099	89.151	165.1748
170.742462	89.129	165.2553
171.979736	89.109	165.2708
173.225967	89.081	165.2918
174.481232	89.057	165.3546
175.745605	89.032	165.4100
177.019119	89.015	165.5013
178.301880	88.986	165.4727
179.593933	88.950	165.6166
180.895340	88.928	165.7131
182.206177	88.915	165.8064
183.526520	88.889	165.7586
184.856430	88.859	165.8781
186.195984	88.835	166.0115
187.545227	88.831	166.0487
188.904266	88.793	166.0912
190.273132	88.767	166.1631
191.651932	88.748	166.3052
193.040726	88.722	166.3533
194.439575	88.717	166.4039
195.848572	88.680	166.4933
197.267761	88.669	166.5386
198.697250	88.647	166.6699
200.137085	88.626	166.7188
201.587372	88.601	166.7695
203.048157	88.573	166.9642
204.519531	88.557	167.0066
206.001556	88.531	167.1295
207.494324	88.502	167.1726
208.997925	88.486	167.3555
210.512405	88.462	167.2980
212.037857	88.445	167.4966
213.574371	88.421	167.5488
215.122025	88.400	167.6736
216.680893	88.375	167.8236
218.251053	88.354	167.8965
219.832581	88.326	167.9860
221.425583	88.309	168.1096
223.030121	88.280	168.2159
224.646286	88.259	168.3242
226.274170	88.231	168.4732
227.913849	88.204	168.6235
229.565399	88.184	168.6925
231.228928	88.156	168.8048
232.904510	88.124	168.9559
234.592224	88.109	169.0794
236.292191	88.080	169.2058
238.004456	88.062	169.3784
239.729126	88.032	169.4772
241.466309	88.008	169.6199
243.216080	87.975	169.7575
244.978516	87.956	169.8411
246.753738	87.916	170.0536
248.541809	87.896	170.2492
250.342850	87.891	170.5014
252.156937	87.854	170.6550
253.984161	87.836	170.8264
255.824646	87.799	171.0409
257.678467	87.791	171.2938
259.545685	87.772	171.5342
261.426483	87.748	171.7401
263.320862	87.746	171.9274
265.229004	87.715	172.2406
267.150970	87.702	172.5905
269.086853	87.689	172.8849
271.036774	87.708	173.0048
273.000824	87.691	173.2518
274.979095	87.695	173.4382
276.971710	87.693	173.6507
278.978760	87.686	173.8340
281.000336	87.696	173.9657
283.036591	87.698	174.1053
285.087585	87.694	174.1295
287.153442	87.683	174.3179
289.234283	87.674	174.4240
291.330200	87.673	174.5052
293.441284	87.652	174.6565
295.567688	87.652	174.6913
297.709503	87.638	174.8759
299.866821	87.616	174.9751
302.039795	87.615	174.9917
304.228485	87.593	175.1627
306.433044	87.574	175.3184
308.653595	87.548	175.4258
310.890228	87.544	175.4862
313.143066	87.530	175.7127
315.412231	87.512	175.8640
317.697845	87.489	176.0041
320.000000	87.463	176.0735
322.318848	87.449	176.2284
324.654510	87.438	176.3287
327.007080	87.425	176.5506
329.376709	87.405	176.7149
331.763519	87.387	176.8428
334.167603	87.364	176.9979
336.589142	87.353	177.1301
339.028198	87.331	177.3847
341.484924	87.315	177.5115
343.959473	87.297	177.7244
346.451935	87.280	177.8848
348.962463	87.267	177.9757
351.491211	87.240	178.1924
354.038239	87.227	178.3539
356.603760	87.213	178.5983
359.187866	87.203	178.7625
361.790680	87.185	178.9847
364.412354	87.170	179.1639
367.053040	87.154	179.3363
369.712860	87.142	179.5421
372.391968	87.127	179.7126
375.090454	87.115	179.9323
377.808533	87.098	-179.8694
380.546265	87.081	-179.6562
383.303864	87.067	-179.4606
386.081451	87.051	-179.2260
388.879150	87.037	-179.0258
391.697144	87.019	-178.8107
394.535522	87.003	-178.5930
397.394501	86.990	-178.3897
400.274170	86.981	-178.1492
403.174744	86.963	-177.9669
406.096313	86.952	-177.7306
409.039062	86.933	-177.5184
412.003113	86.921	-177.3089
414.988647	86.909	-177.0371
417.995850	86.894	-176.8047
421.024811	86.881	-176.5978
424.075714	86.869	-176.3561
427.148743	86.859	-176.1197
430.244049	86.843	-175.9074
433.361786	86.832	-175.6483
436.502106	86.819	-175.3947
439.665161	86.802	-175.1652
442.851166	86.792	-174.8820
446.060242	86.783	-174.6500
449.292572	86.768	-174.4094
452.548340	86.752	-174.1773
455.827698	86.742	-173.9124
459.130798	86.731	-173.6425
462.457855	86.721	-173.4324
465.809021	86.709	-173.1664
469.184448	86.699	-172.8560
472.584381	86.688	-172.6164
476.008911	86.676	-172.4051
479.458252	86.664	-172.1576
482.932617	86.654	-171.8882
486.432159	86.645	-171.5981
489.957031	86.638	-171.3358
493.507477	86.627	-171.0270
497.083618	86.626	-170.7600
500.685699	86.615	-170.5580
504.313873	86.605	-170.2701
507.968323	86.598	-170.0151
511.649292	86.592	-169.7504
515.356934	86.577	-169.4390
519.091370	86.568	-169.1830
522.852966	86.555	-168.8838
526.641724	86.543	-168.5764
530.458008	86.533	-168.2890
534.301941	86.523	-168.0020
538.173706	86.517	-167.6760
542.073547	86.503	-167.3377
546.001648	86.489	-167.0687
549.958191	86.487	-166.7538
553.943420	86.475	-166.4684
557.957520	86.465	-166.2155
562.000671	86.462	-165.8920
566.073181	86.455	-165.5747
570.175171	86.458	-165.2479
574.306885	86.452	-164.8672
578.468567	86.439	-164.5657
582.660400	86.431	-164.2565
586.882568	86.432	-163.9775
591.135376	86.430	-163.5887
595.419006	86.425	-163.2594
599.733643	86.419	-162.9149
604.079590	86.416	-162.5775
608.456970	86.418	-162.2237
612.866089	86.407	-161.8643
617.307190	86.402	-161.5198
621.780457	86.404	-161.1632
626.286133	86.392	-160.7708
630.824463	86.398	-160.4758
635.395691	86.395	-160.0664
640.000000	86.393	-159.7070
644.637695	86.390	-159.3487
649.309021	86.386	-158.9298
654.014160	86.389	-158.5917
658.753418	86.383	-158.2009
663.527039	86.389	-157.8043
668.335205	86.390	-157.4297
673.178284	86.385	-157.0518
678.056396	86.385	-156.6166
682.969849	86.392	-156.2215
687.918945	86.394	-155.8406
692.903870	86.388	-155.4621
697.924927	86.397	-155.0083
702.982422	86.403	-154.5941
708.076477	86.405	-154.1996
713.207520	86.408	-153.7849
718.375732	86.405	-153.3521
723.581360	86.408	-152.9189
728.824707	86.416	-152.4819
734.106079	86.427	-152.0353
739.425720	86.439	-151.6171
744.783936	86.448	-151.1823
750.180908	86.466	-150.7882
755.617065	86.475	-150.3219
761.092529	86.491	-149.8929
766.607727	86.504	-149.4756
772.162903	86.518	-149.0357
777.758301	86.537	-148.6029
783.394287	86.548	-148.1095
789.071045	86.563	-147.6312
794.789001	86.576	-147.1216
800.548340	86.600	-146.6763
806.349487	86.608	-146.2202
812.192627	86.622	-145.7815
818.078125	86.647	-145.2982
824.006226	86.680	-144.8255
829.977295	86.688	-144.3235
835.991699	86.709	-143.8778
842.049622	86.734	-143.4272
848.151428	86.757	-142.9543
854.297485	86.785	-142.4746
860.488098	86.813	-142.0195
866.723572	86.841	-141.5298
873.004211	86.870	-141.0865
879.330322	86.905	-140.5980
885.702332	86.935	-140.1970
892.120483	86.974	-139.6575
898.585144	87.000	-139.2701
905.096680	87.037	-138.8005
911.655396	87.080	-138.3346
918.261597	87.105	-137.8953
924.915710	87.152	-137.4413
931.618042	87.192	-137.0087
938.368896	87.231	-136.5316
945.168762	87.276	-136.1457
952.017822	87.323	-135.6933
958.916504	87.363	-135.3019
965.865234	87.408	-134.8857
972.864319	87.459	-134.4339
979.914062	87.511	-134.0355
987.014954	87.559	-133.6330
994.167236	87.613	-133.2505
1001.371399	87.670	-132.8396
1008.627747	87.728	-132.4975
1015.936646	87.776	-132.1319
1023.298584	87.834	-131.7411
1030.713867	87.889	-131.3792
1038.182739	87.942	-131.0177
1045.705933	87.998	-130.6590
1053.283447	88.059	-130.3327
1060.916016	88.116	-129.9793
1068.603882	88.172	-129.6856
1076.347412	88.229	-129.3553
1084.147095	88.284	-129.0370
1092.003296	88.332	-128.7443
1099.916382	88.384	-128.4340
1107.886841	88.435	-128.1318
1115.915039	88.488	-127.8451
1124.001343	88.533	-127.5637
1132.146362	88.586	-127.2802
1140.350342	88.641	-127.0297
1148.613770	88.693	-126.7511
1156.937134	88.740	-126.4867
1165.320801	88.791	-126.2270
1173.765137	88.845	-126.0081
1182.270752	88.894	-125.7290
1190.838013	88.947	-125.5084
1199.467285	88.990	-125.2966
1208.159180	89.044	-125.0234
1216.913940	89.109	-124.8085
1225.732178	89.177	-124.5950
1234.614380	89.251	-124.3812
1243.560913	89.321	-124.2267
1252.572266	89.388	-123.9659
1261.648926	89.459	-123.7688
1270.791382	89.523	-123.6025
1280.000000	89.591	-123.3792
1289.275391	89.655	-123.2115
1298.618042	89.724	-123.0261
1308.028320	89.789	-122.8384
1317.506836	89.855	-122.6876
1327.054077	89.915	-122.4777
1336.670410	89.978	-122.2949
1346.356567	90.037	-122.1206
1356.112793	90.099	-121.9662
1365.939697	90.206	-121.7622
1375.837891	90.272	-121.5983
1385.807739	90.331	-121.4241
1395.849854	90.392	-121.2399
1405.964844	90.456	-121.0457
1416.152954	90.515	-120.8547
1426.415039	90.574	-120.6435
1436.751465	90.633	-120.4355
1447.162720	90.693	-120.2359
1457.649414	90.751	-119.9979
1468.212158	90.809	-119.8032
1478.851440	90.869	-119.5474
1489.567871	90.925	-119.3493
1500.361816	90.981	-119.1074
1511.234131	91.040	-118.8518
1522.185059	91.099	-118.6051
1533.215454	91.152	-118.3518
1544.325806	91.197	-118.1110
1555.516602	91.244	-117.8264
1566.788574	91.292	-117.5355
1578.142090	91.340	-117.2608
1589.578003	91.391	-116.9748
1601.096680	91.440	-116.6924
1612.698975	91.491	-116.3865
1624.385254	91.541	-116.0990
1636.156250	91.592	-115.7815
1648.012451	91.646	-115.4832
1659.954590	91.702	-115.1588
1671.983398	91.757	-114.8459
1684.099243	91.811	-114.5093
1696.302856	91.872	-114.1900
1708.594971	91.927	-113.8683
1720.976196	91.989	-113.5211
1733.447144	92.054	-113.1751
1746.008423	92.114	-112.8552
1758.660645	92.183	-112.5110
1771.404663	92.245	-112.1619
1784.240967	92.315	-111.8504
1797.170288	92.383	-111.4853
1810.193359	92.453	-111.1248
1823.310791	92.526	-110.8074
1836.523193	92.601	-110.4478
1849.831421	92.673	-110.1196
1863.236084	92.753	-109.7547
1876.737793	92.826	-109.4057
1890.337524	92.910	-109.0746
1904.035645	92.996	-108.7344
1917.833008	93.079	-108.3973
1931.730469	93.164	-108.0488
1945.728638	93.251	-107.7143
1959.828125	93.336	-107.3915
1974.029907	93.429	-107.0790
1988.334473	93.520	-106.7539
2002.742798	93.614	-106.4373
2017.255493	93.709	-106.1548
2031.873291	93.806	-105.8186
2046.597168	93.908	-105.5430
2061.427734	94.014	-105.2475
2076.365479	94.114	-104.9663
2091.411865	94.220	-104.6718
2106.566895	94.331	-104.4382
2121.832031	94.441	-104.1784
2137.207764	94.552	-103.9601
2152.694824	94.669	-103.7265
2168.294189	94.784	-103.5230
2184.006592	94.907	-103.3117
2199.832764	95.025	-103.1240
2215.773682	95.150	-102.9695
2231.830078	95.274	-102.8359
2248.002686	95.402	-102.7069
2264.292725	95.531	-102.5899
2280.700684	95.662	-102.5028
2297.227539	95.796	-102.4336
2313.874268	95.929	-102.3938
2330.641602	96.065	-102.3736
2347.530273	96.207	-102.3737
2364.541504	96.345	-102.4215
2381.676025	96.488	-102.4933
2398.934570	96.629	-102.5946
2416.318359	96.775	-102.7045
2433.827881	96.919	-102.8840
2451.464355	97.065	-103.0887
2469.228760	97.211	-103.3362
2487.121826	97.358	-103.6133
2505.144531	97.501	-103.9210
2523.297852	97.645	-104.2838
2541.582764	97.790	-104.6768
2560.000000	97.931	-105.1229
2578.550781	98.072	-105.6256
2597.236084	98.212	-106.1490
2616.056641	98.346	-106.7366
2635.013672	98.477	-107.3643
2654.108154	98.603	-108.0282
2673.340820	98.726	-108.7597
2692.713135	98.844	-109.5238
2712.225586	98.951	-110.3303
2731.879395	99.055	-111.1811
2751.675781	99.152	-112.0611
2771.615479	99.240	-112.9907
2791.699707	99.316	-113.9378
2811.929688	99.387	-114.9327
2832.305908	99.447	-115.9470
2852.830078	99.496	-116.9813
2873.502930	99.533	-118.0328
2894.325439	99.562	-119.0765
2915.298828	99.576	-120.1225
2936.424316	99.580	-121.1678
2957.702881	99.572	-122.2090
2979.135742	99.553	-123.2480
3000.723633	99.525	-124.2371
3022.468262	99.485	-125.2111
3044.370117	99.436	-126.1361
3066.430908	99.372	-127.0302
3088.651611	99.303	-127.8828
3111.033203	99.224	-128.6973
3133.577148	99.138	-129.4460
3156.284180	99.042	-130.1515
3179.156006	98.942	-130.8041
3202.193359	98.834	-131.3859
3225.397949	98.725	-131.9160
3248.770508	98.609	-132.3886
3272.312500	98.489	-132.7978
3296.024902	98.368	-133.1488
3319.909180	98.246	-133.4327
3343.966797	98.121	-133.6607
3368.198486	97.996	-133.8355
3392.605713	97.871	-133.9431
3417.189941	97.746	-133.9907
3441.952393	97.624	-133.9926
3466.894287	97.502	-133.9431
3492.016846	97.382	-133.8452
3517.321289	97.266	-133.6880
3542.809326	97.147	-133.4844
3568.481934	97.037	-133.2412
3594.340576	96.928	-132.9308
3620.386719	96.819	-132.5757
3646.621582	96.713	-132.2005
3673.046387	96.612	-131.7675
3699.662842	96.516	-131.3040
3726.472168	96.422	-130.8072
3753.475586	96.326	-130.2434
3780.675049	96.246	-129.6711
3808.071289	96.159	-129.0768
3835.666016	96.082	-128.4233
3863.460938	96.007	-127.7381
3891.457275	95.939	-127.0152
3919.656250	95.874	-126.3016
3948.059814	95.815	-125.5397
3976.668945	95.757	-124.7469
4005.485596	95.707	-123.9402
4034.510986	95.663	-123.0811
4063.746582	95.622	-122.2169
4093.194336	95.587	-121.3493
4122.855469	95.558	-120.4414
4152.730957	95.539	-119.5300
4182.823730	95.518	-118.5653
4213.133789	95.506	-117.6262
4243.664062	95.503	-116.6388
4274.415527	95.500	-115.6413
4305.389648	95.507	-114.6473
4336.588379	95.518	-113.6287
4368.013184	95.543	-112.6033
4399.665527	95.573	-111.5725
4431.547363	95.606	-110.5627
4463.660156	95.649	-109.5117
4496.005371	95.695	-108.4540
4528.585449	95.747	-107.4269
4561.401367	95.807	-106.3231
4594.455078	95.878	-105.2578
4627.748535	95.951	-104.1879
4661.283203	96.036	-103.0972
4695.060547	96.128	-102.0068
4729.083008	96.231	-100.9357
4763.352051	96.342	-99.8588
4797.869141	96.465	-98.8165
4832.636719	96.589	-97.7541
4867.655762	96.732	-96.7272
4902.928711	96.873	-95.7472
4938.457520	97.029	-94.7119
4974.243652	97.193	-93.7118
5010.289062	97.375	-92.7526
5046.595703	97.560	-91.8258
5083.165527	97.766	-90.9099
5120.000000	97.983	-90.0440
5157.101562	98.216	-89.2264
5194.472168	98.468	-88.4430
5232.113281	98.737	-87.7276
5270.027344	99.018	-87.1087
5308.216309	99.326	-86.5923
5346.681641	99.651	-86.2027
5385.426270	99.997	-85.9691
5424.451172	100.364	-85.9318
5463.758789	100.745	-86.0837
5503.351562	101.134	-86.5284
5543.230957	101.531	-87.2448
5583.399414	101.937	-88.2969
5623.859375	102.335	-89.7391
5664.611816	102.714	-91.5746
5705.660156	103.066	-93.8022
5747.005859	103.376	-96.3222
5788.650879	103.614	-99.1028
5830.597656	103.818	-101.9003
5872.848633	103.977	-104.9028
5915.405762	104.086	-107.9977
5958.271484	104.167	-111.1320
6001.447266	104.206	-114.1803
6044.936523	104.175	-117.5493
6088.740234	104.086	-120.9283
6132.861816	103.916	-124.1991
6177.303223	103.661	-127.2262
6222.066406	103.327	-129.9976
6267.154297	102.963	-132.4110
6312.568359	102.557	-134.2627
6358.312012	102.147	-135.6486
6404.386719	101.728	-136.6661
6450.795898	101.315	-137.2898
6497.541016	100.919	-137.5874
6544.625000	100.549	-137.6000
6592.049805	100.198	-137.2867
6639.818359	99.875	-136.8383
6687.933594	99.582	-136.1422
6736.396973	99.312	-135.3088
6785.211426	99.073	-134.3751
6834.379883	98.868	-133.3236
6883.904785	98.708	-132.2017
6933.788574	98.598	-130.9783
6984.033691	98.519	-129.7648
7034.642578	98.468	-128.4949
7085.618652	98.459	-127.2442
7136.963867	98.473	-125.9609
7188.681152	98.527	-124.7766
7240.773438	98.616	-123.6197
7293.243164	98.737	-122.6041
7346.092773	98.887	-121.6812
7399.325684	99.079	-120.9070
7452.944336	99.305	-120.3675
7506.951172	99.559	-120.0600
7561.350098	99.845	-120.0807
7616.142578	100.152	-120.3806
7671.332031	100.485	-121.1269
7726.921875	100.939	-122.2523
7782.914551	101.297	-123.8855
7839.312500	101.631	-126.4985
7896.119629	101.915	-129.9167
7953.337891	102.114	-134.0910
8010.971191	102.198	-138.9687
8069.021973	102.123	-144.3164
8127.493164	101.862	-149.8255
8186.388672	101.417	-155.0999
8245.710938	100.813	-159.8477
8305.461914	100.091	-163.7828
8365.647461	99.277	-166.8819
8426.267578	98.424	-169.0836
8487.328125	97.548	-170.4348
8548.831055	96.672	-171.0218
8610.779297	95.820	-170.8840
8673.176758	94.980	-170.0556
8736.026367	94.200	-168.5944
8799.331055	93.516	-166.6443
8863.094727	92.933	-164.5506
8927.320312	92.424	-162.7164
8992.010742	91.933	-161.1409
9057.170898	91.426	-159.6404
9122.802734	90.882	-158.0507
9188.910156	90.351	-156.1164
9255.497070	89.835	-153.9450
9322.566406	89.348	-151.6349
9390.121094	88.882	-149.0357
9458.166016	88.453	-146.4552
9526.704102	88.050	-143.6169
9595.738281	87.647	-140.9007
9665.273438	87.316	-137.7211
9735.311523	86.993	-134.7045
9805.857422	86.703	-131.6358
9876.915039	86.440	-128.5381
9948.487305	86.215	-125.2027
10020.578125	86.025	-122.0945
10093.191406	85.845	-118.7627
10166.331055	85.715	-115.4213
10240.000000	85.617	-112.1171
10314.203125	85.576	-108.8505
10388.944336	85.575	-105.6671
10464.226562	85.586	-102.3407
10540.054688	85.691	-99.4199
10616.432617	85.813	-96.3823
10693.363281	86.018	-93.5922
10770.852539	86.277	-91.2407
10848.902344	86.593	-89.0663
10927.517578	86.948	-87.3180
11006.703125	87.369	-86.3634
11086.461914	87.838	-86.1294
11166.798828	88.317	-86.8837
11247.718750	88.753	-88.9803
11329.223633	89.062	-92.2776
11411.320312	89.144	-96.3823
11494.011719	88.981	-100.7193
11577.301758	88.627	-104.4218
11661.195312	88.120	-107.5587
11745.697266	87.526	-109.9176
11830.811523	86.841	-111.5761
11916.542969	86.089	-112.3045
12002.894531	85.331	-112.0229
12089.873047	84.610	-110.9496
12177.480469	83.914	-109.3172
12265.723633	83.299	-107.2392
12354.606445	82.767	-104.6109
12444.132812	82.271	-102.0071
12534.308594	81.828	-99.0759
12625.136719	81.440	-95.9005
12716.624023	81.065	-93.0455
12808.773438	80.798	-89.5898
12901.591797	80.514	-86.1416
12995.082031	80.257	-83.1411
13089.250000	80.090	-79.6485
13184.099609	79.851	-76.2982
13279.636719	79.751	-72.6355
13375.867188	79.523	-69.4178
13472.793945	79.439	-65.8785
13570.422852	79.371	-62.2798
13668.759766	79.311	-58.9114
13767.809570	79.345	-55.1878
13867.577148	79.397	-51.7638
13968.067383	79.440	-48.2593
14069.285156	79.593	-44.7326
14171.237305	79.683	-41.5958
14273.927734	79.868	-37.8814
14377.362305	80.035	-34.4715
14481.546875	80.283	-30.8956
14586.486328	80.563	-27.2347
14692.185547	80.936	-23.8641
14798.651367	81.353	-20.4122
14905.888672	81.883	-16.9516
15013.902344	82.499	-14.0081
15122.700195	83.181	-11.0845
15232.285156	84.045	-8.6554
15342.664062	85.002	-6.9940
15453.843750	86.140	-6.3962
15565.829102	87.461	-7.5651
15678.625000	88.891	-11.2537
15792.239258	90.250	-18.4894
15906.675781	91.276	-29.7761
16021.942383	91.612	-43.2649
16138.043945	91.132	-56.4494
16254.986328	90.088	-66.4128
16372.777344	88.849	-72.9432
16491.421875	87.626	-76.7919
16610.923828	86.513	-78.7327
16731.294922	85.565	-79.0253
16852.535156	84.700	-78.5415
16974.656250	84.015	-77.5328
17097.662109	83.377	-76.0521
17221.558594	82.874	-74.2203
17346.353516	82.534	-72.6797
17472.052734	82.208	-70.9592
17598.662109	82.004	-69.2510
17726.189453	81.842	-67.6743
17854.640625	81.731	-66.2919
17984.021484	81.795	-64.9742
18114.341797	81.935	-64.0844
18245.605469	82.126	-64.0122
18377.820312	82.428	-64.7506
18510.994141	82.647	-66.4682
18645.132812	82.766	-69.5556
18780.242188	82.746	-72.2900
18916.332031	82.645	-74.9402
19053.408203	82.599	-76.9926
19191.476562	82.524	-78.9180
19330.546875	82.452	-81.2071
19470.623047	82.528	-83.2767
19611.714844	82.559	-85.5959
19753.830078	82.609	-88.6870
19896.974609	82.657	-92.3179
