* Measurement data measured by REW V5.20.4
* Source: Microphone (2- KM-HIFI-384KHZ), MICROPHONE (Master Volume), R, volume: 0.250
* Format: 256k Log Swept Sine, 1 sweep at -6.0 dBFS with no timing reference
* Dated: 25 Mar, 2022 4:42:07 PM
* REW Settings:
*  C-weighting compensation: Off
*  Target level: 75.0 dB
* Note: 
* Measurement: B2F R
* Smoothing: None
* Frequency Step: 1/48 octave
* Start Frequency: 20.000 Hz
*
* Freq(Hz)	SPL(dB)	Phase(degrees)
20.000000	93.146	-178.7961
20.299999	93.142	-179.1378
20.600000	93.134	-179.4263
20.900000	93.126	-179.6462
21.200001	93.125	-179.8214
21.400000	93.129	-179.9292
21.799999	93.147	179.8452
22.000000	93.158	179.7095
22.400000	93.178	179.3664
22.700001	93.183	179.0806
23.000000	93.177	178.8111
23.299999	93.162	178.5946
23.600000	93.143	178.4641
24.000000	93.125	178.4265
24.299999	93.126	178.4518
24.700001	93.149	178.4612
25.000000	93.176	178.3817
25.400000	93.211	178.1135
25.799999	93.226	177.7183
26.200001	93.215	177.3091
26.500000	93.194	177.0617
26.900000	93.158	176.8567
27.200001	93.134	176.7722
27.600000	93.116	176.6865
28.000000	93.110	176.5649
28.500000	93.105	176.3271
29.000000	93.095	176.0682
29.500000	93.089	175.8247
30.000000	93.093	175.5443
30.400000	93.098	175.2363
30.700001	93.095	174.9711
31.100000	93.077	174.6385
31.500000	93.050	174.4045
32.000000	93.024	174.2857
32.500000	93.026	174.2064
33.000000	93.041	173.9724
33.500000	93.032	173.5964
34.000000	92.992	173.3187
34.500000	92.956	173.2892
35.000000	92.953	173.3778
35.500000	92.980	173.3010
36.000000	92.994	172.9996
36.500000	92.974	172.6742
37.000000	92.942	172.5256
37.500000	92.927	172.4902
38.200001	92.932	172.2905
38.700001	92.916	172.0330
39.500000	92.871	171.8359
40.000000	92.864	171.8131
40.599998	92.878	171.6431
41.200001	92.878	171.3057
41.799999	92.856	170.9930
42.500000	92.825	170.7522
43.099998	92.802	170.5812
43.700001	92.778	170.4514
44.400002	92.758	170.3718
45.000000	92.754	170.2712
45.500000	92.751	170.1130
46.200001	92.732	169.8550
46.799999	92.708	169.6848
47.500000	92.685	169.5237
48.200001	92.665	169.3311
48.700001	92.647	169.1948
49.400002	92.624	169.0621
50.000000	92.617	168.9427
50.799999	92.605	168.6510
51.500000	92.574	168.4161
52.200001	92.547	168.3472
53.000000	92.545	168.2300
53.799999	92.530	167.9460
54.500000	92.498	167.7903
55.200001	92.482	167.6954
56.000000	92.465	167.4487
57.000000	92.411	167.2111
58.000000	92.385	167.1370
59.000000	92.363	166.8555
60.000000	92.314	166.6531
60.799999	92.289	166.5618
61.500000	92.272	166.4640
62.200001	92.258	166.3619
63.000000	92.240	166.1918
64.000000	92.203	166.0010
65.000000	92.179	165.8531
66.000000	92.136	165.5909
67.000000	92.097	165.6187
68.000000	92.100	165.3853
69.000000	92.045	165.0950
70.000000	92.016	165.1114
71.000000	91.998	164.8864
72.000000	91.956	164.7717
73.000000	91.925	164.6673
74.000000	91.889	164.6098
75.000000	91.871	164.5122
76.199997	91.841	164.3101
77.500000	91.801	163.9958
78.800003	91.739	163.9130
80.000000	91.721	163.7975
81.199997	91.676	163.6272
82.500000	91.644	163.5243
83.800003	91.587	163.3420
85.000000	91.555	163.3214
86.199997	91.508	163.1160
87.500000	91.468	163.1350
88.500000	91.448	162.9995
90.000000	91.408	162.8913
91.199997	91.374	162.7404
92.500000	91.339	162.6764
93.800003	91.297	162.5627
95.000000	91.265	162.5344
96.199997	91.229	162.4003
97.500000	91.181	162.3255
98.800003	91.128	162.3126
100.000000	91.104	162.3682
101.500000	91.069	162.1693
103.000000	91.015	162.0946
104.400002	90.981	161.9929
106.000000	90.927	161.9872
107.500000	90.896	161.8707
109.000000	90.850	161.8345
110.599998	90.790	161.8295
112.000000	90.769	161.7827
113.800003	90.690	161.6942
115.000000	90.665	161.7056
117.199997	90.602	161.5845
118.000000	90.575	161.5831
120.599998	90.513	161.5423
122.000000	90.473	161.5407
124.099998	90.424	161.5825
125.000000	90.395	161.5098
126.500000	90.355	161.5349
128.000000	90.299	161.5555
131.500000	90.226	161.5659
132.000000	90.214	161.5439
134.000000	90.160	161.5471
136.000000	90.108	161.5331
138.000000	90.045	161.6401
140.000000	90.011	161.6575
143.000000	89.927	161.6972
145.000000	89.884	161.7281
147.500000	89.820	161.8281
150.000000	89.766	161.8863
152.500000	89.696	161.9697
155.000000	89.629	162.0502
157.500000	89.558	162.0959
160.000000	89.517	162.2173
162.500000	89.441	162.3327
165.000000	89.389	162.4687
167.500000	89.326	162.6036
170.000000	89.267	162.7184
172.500000	89.221	162.9156
175.000000	89.155	162.8925
177.500000	89.114	163.0170
180.000000	89.058	163.2295
182.500000	89.003	163.4523
185.000000	88.945	163.5141
187.500000	88.908	163.6212
190.000000	88.878	163.7512
192.500000	88.821	163.9290
195.000000	88.771	164.0263
197.500000	88.730	164.1880
200.000000	88.703	164.4036
203.000000	88.649	164.6111
206.000000	88.599	164.7792
209.000000	88.550	164.9414
212.000000	88.522	165.2223
214.000000	88.479	165.3860
218.000000	88.415	165.6555
220.000000	88.388	165.8439
224.000000	88.321	166.0985
227.000000	88.275	166.3350
230.000000	88.237	166.5418
233.000000	88.186	166.7828
236.000000	88.143	167.0041
240.000000	88.096	167.2938
243.000000	88.058	167.5655
247.000000	87.991	167.9274
250.000000	87.959	168.1736
254.000000	87.910	168.5107
258.000000	87.856	168.8331
262.000000	87.806	169.1198
265.000000	87.777	169.3848
269.000000	87.742	169.7906
272.000000	87.699	170.0474
276.000000	87.654	170.4315
280.000000	87.608	170.7883
285.000000	87.548	171.2360
290.000000	87.487	171.6906
295.000000	87.450	172.2469
300.000000	87.401	172.7250
304.000000	87.380	173.2403
307.000000	87.352	173.5339
311.000000	87.330	174.0132
315.000000	87.314	174.3042
320.000000	87.296	174.7101
325.000000	87.270	175.0609
330.000000	87.254	175.4402
335.000000	87.210	175.8258
340.000000	87.172	176.0979
345.000000	87.144	176.5248
350.000000	87.112	176.9127
355.000000	87.081	177.2681
360.000000	87.057	177.7198
365.000000	87.022	178.1102
370.000000	86.992	178.5059
375.000000	86.962	178.9267
382.000000	86.923	179.4554
387.000000	86.899	179.8863
395.000000	86.865	-179.4914
400.000000	86.832	-179.0909
406.000000	86.804	-178.5164
412.000000	86.788	-178.1218
418.000000	86.755	-177.6265
425.000000	86.720	-177.0970
431.000000	86.696	-176.6008
437.000000	86.668	-176.0710
444.000000	86.645	-175.4626
450.000000	86.629	-175.0208
455.000000	86.604	-174.6250
462.000000	86.573	-174.1903
468.000000	86.550	-173.7176
475.000000	86.533	-173.1404
482.000000	86.505	-172.4558
487.000000	86.476	-172.0192
494.000000	86.457	-171.5091
500.000000	86.444	-171.0895
508.000000	86.407	-170.4182
515.000000	86.410	-169.8034
522.000000	86.401	-169.1990
530.000000	86.386	-168.6409
538.000000	86.378	-168.0024
545.000000	86.362	-167.4443
552.000000	86.356	-166.8874
560.000000	86.344	-166.1555
570.000000	86.318	-165.2755
580.000000	86.297	-164.5072
590.000000	86.301	-163.6987
600.000000	86.290	-162.8417
608.000000	86.292	-162.1586
615.000000	86.281	-161.6230
622.000000	86.284	-161.0103
630.000000	86.279	-160.3894
640.000000	86.280	-159.5338
650.000000	86.281	-158.7138
660.000000	86.278	-157.9039
670.000000	86.280	-157.0582
680.000000	86.288	-156.2622
690.000000	86.293	-155.4058
700.000000	86.305	-154.5567
710.000000	86.308	-153.6849
720.000000	86.321	-152.8963
730.000000	86.339	-152.0454
740.000000	86.354	-151.2139
750.000000	86.374	-150.3357
762.000000	86.398	-149.3913
775.000000	86.426	-148.2828
788.000000	86.458	-147.1847
800.000000	86.506	-146.2155
812.000000	86.548	-145.2692
825.000000	86.606	-144.2516
838.000000	86.667	-143.2122
850.000000	86.724	-142.2185
862.000000	86.766	-141.2946
875.000000	86.835	-140.3419
885.000000	86.889	-139.5622
900.000000	86.975	-138.4760
912.000000	87.047	-137.6919
925.000000	87.125	-136.7232
938.000000	87.210	-135.9211
950.000000	87.287	-135.1303
962.000000	87.367	-134.4130
975.000000	87.466	-133.6269
988.000000	87.570	-132.8460
1000.000000	87.662	-132.2150
1015.000000	87.771	-131.4232
1030.000000	87.892	-130.7131
1044.000000	88.002	-130.0555
1060.000000	88.124	-129.3264
1075.000000	88.238	-128.7089
1090.000000	88.337	-128.1146
1106.000000	88.440	-127.5385
1120.000000	88.531	-127.0302
1138.000000	88.645	-126.4383
1150.000000	88.720	-126.0137
1172.000000	88.849	-125.3343
1180.000000	88.892	-125.1014
1206.000000	89.040	-124.3724
1220.000000	89.138	-124.0174
1241.000000	89.291	-123.4366
1250.000000	89.365	-123.1697
1265.000000	89.474	-122.8151
1280.000000	89.583	-122.4137
1315.000000	89.840	-121.5528
1320.000000	89.874	-121.4351
1340.000000	90.009	-120.9736
1360.000000	90.183	-120.4704
1380.000000	90.332	-120.0135
1400.000000	90.467	-119.5613
1430.000000	90.671	-118.8810
1450.000000	90.804	-118.4390
1475.000000	90.965	-117.9064
1500.000000	91.124	-117.3318
1525.000000	91.278	-116.7864
1550.000000	91.409	-116.1858
1575.000000	91.535	-115.6120
1600.000000	91.661	-115.0133
1625.000000	91.786	-114.3819
1650.000000	91.912	-113.7877
1675.000000	92.041	-113.1566
1700.000000	92.174	-112.5314
1725.000000	92.305	-111.8816
1750.000000	92.447	-111.2594
1775.000000	92.588	-110.6112
1800.000000	92.737	-109.9633
1825.000000	92.887	-109.3291
1850.000000	93.044	-108.7079
1875.000000	93.197	-108.0896
1900.000000	93.359	-107.4817
1925.000000	93.529	-106.9052
1950.000000	93.693	-106.3340
1975.000000	93.870	-105.8016
2000.000000	94.046	-105.2744
2030.000000	94.264	-104.6768
2060.000000	94.489	-104.1481
2090.000000	94.721	-103.6477
2120.000000	94.958	-103.2016
2140.000000	95.122	-102.9231
2180.000000	95.453	-102.4892
2200.000000	95.621	-102.3007
2240.000000	95.965	-102.0455
2270.000000	96.229	-101.9412
2300.000000	96.496	-101.9178
2330.000000	96.769	-102.0271
2360.000000	97.043	-102.2091
2400.000000	97.409	-102.6193
2430.000000	97.685	-103.0844
2470.000000	98.049	-103.8625
2500.000000	98.316	-104.6061
2540.000000	98.665	-105.7959
2580.000000	98.996	-107.2397
2620.000000	99.305	-108.8875
2650.000000	99.517	-110.3002
2690.000000	99.769	-112.3231
2720.000000	99.933	-113.9796
2760.000000	100.111	-116.3016
2800.000000	100.239	-118.7437
2850.000000	100.328	-121.8366
2900.000000	100.334	-124.9090
2950.000000	100.264	-127.8316
3000.000000	100.120	-130.5239
3040.000000	99.962	-132.4394
3070.000000	99.823	-133.7371
3110.000000	99.618	-135.2900
3150.000000	99.390	-136.5839
3200.000000	99.088	-137.8763
3250.000000	98.776	-138.8177
3300.000000	98.462	-139.4325
3350.000000	98.156	-139.7257
3400.000000	97.858	-139.7525
3450.000000	97.580	-139.5682
3500.000000	97.318	-139.1462
3550.000000	97.070	-138.5551
3600.000000	96.837	-137.8222
3650.000000	96.623	-136.9440
3700.000000	96.422	-135.9440
3750.000000	96.241	-134.8119
3820.000000	96.015	-133.1022
3870.000000	95.872	-131.7814
3950.000000	95.684	-129.5054
4000.000000	95.584	-128.0019
4060.000000	95.488	-126.1195
4120.000000	95.420	-124.1845
4180.000000	95.378	-122.2210
4250.000000	95.357	-119.8356
4310.000000	95.363	-117.8260
4370.000000	95.401	-115.7842
4440.000000	95.475	-113.4285
4500.000000	95.554	-111.4311
4550.000000	95.635	-109.7478
4620.000000	95.778	-107.3849
4680.000000	95.924	-105.3801
4750.000000	96.132	-103.0203
4820.000000	96.377	-100.7170
4870.000000	96.566	-99.1590
4940.000000	96.864	-97.0087
5000.000000	97.145	-95.2077
5080.000000	97.577	-92.9446
5150.000000	98.005	-91.1024
5220.000000	98.486	-89.4447
5300.000000	99.107	-87.7916
5380.000000	99.816	-86.6176
5450.000000	100.510	-86.1208
5520.000000	101.265	-86.2739
5600.000000	102.184	-87.4895
5700.000000	103.415	-91.1906
5800.000000	104.534	-98.5546
5900.000000	105.081	-108.6903
6000.000000	105.092	-120.1516
6080.000000	104.812	-128.4222
6150.000000	104.334	-134.1799
6220.000000	103.689	-138.3706
6300.000000	102.803	-141.6176
6400.000000	101.769	-143.8320
6500.000000	100.820	-144.2715
6600.000000	99.996	-143.4908
6700.000000	99.323	-141.8037
6800.000000	98.769	-139.6280
6900.000000	98.390	-137.0867
7000.000000	98.173	-134.3317
7100.000000	98.083	-131.5241
7200.000000	98.115	-128.7919
7300.000000	98.276	-126.3140
7400.000000	98.541	-124.1483
7500.000000	98.936	-122.5441
7620.000000	99.555	-121.6647
7750.000000	100.493	-122.6293
7880.000000	101.319	-126.6022
8000.000000	101.952	-133.7270
8120.000000	102.127	-144.1225
8250.000000	101.453	-156.4798
8380.000000	99.981	-166.1909
8500.000000	98.264	-171.2701
8620.000000	96.490	-172.8034
8750.000000	94.642	-170.7616
8850.000000	93.496	-166.6567
9000.000000	92.592	-161.0947
9120.000000	91.845	-159.2636
9250.000000	90.869	-156.6872
9380.000000	89.907	-152.8916
9500.000000	89.123	-148.7714
9620.000000	88.426	-144.0438
9750.000000	87.796	-138.8181
9880.000000	87.295	-133.2751
10000.000000	86.921	-128.0069
10150.000000	86.617	-121.4268
10300.000000	86.501	-114.7551
10440.000000	86.549	-109.1726
10600.000000	86.811	-103.1882
10750.000000	87.279	-98.3812
10900.000000	87.988	-95.3667
11060.000000	88.972	-94.9662
11200.000000	89.837	-98.5832
11380.000000	90.332	-109.2022
11500.000000	89.865	-117.7048
11720.000000	87.700	-126.9738
11800.000000	86.821	-127.6642
12060.000000	84.258	-124.1374
12200.000000	83.127	-120.3253
12410.000000	81.725	-113.1528
12500.000000	81.265	-109.5335
12650.000000	80.659	-103.6927
12800.000000	80.140	-98.1011
13150.000000	79.323	-84.5413
13200.000000	79.203	-82.7709
13400.000000	78.908	-75.4822
13600.000000	78.737	-68.1656
13800.000000	78.680	-60.9316
14000.000000	78.758	-53.9134
14300.000000	79.016	-43.4530
14500.000000	79.397	-36.7995
14750.000000	79.990	-28.2581
15000.000000	80.969	-20.9534
15250.000000	82.324	-14.4409
15500.000000	84.234	-11.6776
15750.000000	86.639	-15.2203
16000.000000	88.797	-31.2679
16250.000000	88.533	-56.1974
16500.000000	86.117	-70.8925
16750.000000	83.669	-74.4580
17000.000000	81.748	-72.2538
17250.000000	80.472	-67.8625
17500.000000	79.619	-62.8786
17750.000000	79.261	-59.5799
18000.000000	78.737	-57.9503
18250.000000	78.124	-56.3548
18500.000000	77.610	-52.1420
18750.000000	77.344	-47.4041
19000.000000	77.683	-41.6435
19250.000000	78.503	-42.0031
19500.000000	79.071	-44.8742
19750.000000	79.379	-48.5487
