* Measurement data measured by REW V5.20.4
* Source: Microphone (2- KM-HIFI-384KHZ), MICROPHONE (Master Volume), L, volume: 0.250
* Format: 256k Log Swept Sine, 1 sweep at -6.0 dBFS with no timing reference
* Dated: 25 Mar, 2022 5:18:06 PM
* REW Settings:
*  C-weighting compensation: Off
*  Target level: 75.0 dB
* Note: 
* Measurement: B2G L
* Smoothing: None
* Frequency Step: 1/96 octave
* Start Frequency: 20.000 Hz
*
* Freq(Hz)	SPL(dB)	Phase(degrees)
20.000000	92.653	-176.0939
20.144928	92.651	-176.2233
20.290907	92.649	-176.3495
20.437943	92.648	-176.4719
20.586044	92.647	-176.5907
20.735220	92.647	-176.7049
20.885475	92.648	-176.8201
21.036821	92.648	-176.9385
21.189262	92.650	-177.0585
21.342808	92.652	-177.1802
21.497467	92.654	-177.3034
21.653246	92.657	-177.4254
21.810154	92.659	-177.5456
21.968201	92.660	-177.6658
22.127390	92.662	-177.7884
22.287735	92.664	-177.9104
22.449242	92.665	-178.0278
22.611917	92.667	-178.1414
22.775772	92.668	-178.2520
22.940815	92.670	-178.3590
23.107054	92.673	-178.4669
23.274498	92.676	-178.5768
23.443153	92.679	-178.6886
23.613033	92.683	-178.8015
23.784142	92.687	-178.9182
23.956491	92.691	-179.0423
24.130091	92.695	-179.1726
24.304947	92.698	-179.3100
24.481071	92.699	-179.4525
24.658470	92.699	-179.5934
24.837156	92.696	-179.7329
25.017136	92.692	-179.8664
25.198421	92.686	-179.9930
25.381020	92.679	179.8965
25.564941	92.670	179.8018
25.750195	92.663	179.7265
25.936790	92.656	179.6689
26.124741	92.651	179.6183
26.314051	92.649	179.5746
26.504732	92.649	179.5312
26.696796	92.651	179.4855
26.890253	92.653	179.4266
27.085112	92.656	179.3542
27.281382	92.658	179.2617
27.479073	92.660	179.1561
27.678198	92.661	179.0412
27.878765	92.659	178.9232
28.080786	92.655	178.8047
28.284271	92.649	178.6940
28.489231	92.643	178.5929
28.695675	92.637	178.5051
28.903616	92.632	178.4280
29.113064	92.628	178.3537
29.324028	92.626	178.2786
29.536524	92.626	178.1983
29.750557	92.627	178.1084
29.966141	92.628	178.0075
30.183289	92.629	177.8940
30.402010	92.629	177.7729
30.622314	92.628	177.6523
30.844217	92.625	177.5373
31.067726	92.621	177.4308
31.292856	92.617	177.3343
31.519617	92.614	177.2458
31.748020	92.612	177.1645
31.978081	92.612	177.0797
32.209808	92.613	176.9886
32.443211	92.614	176.8859
32.678310	92.614	176.7748
32.915108	92.612	176.6569
33.153625	92.609	176.5377
33.393871	92.603	176.4244
33.635857	92.591	176.3234
33.879597	92.583	176.2375
34.125103	92.579	176.1619
34.372387	92.575	176.0926
34.621464	92.573	176.0233
34.872345	92.573	175.9491
35.125042	92.572	175.8658
35.379574	92.572	175.7734
35.635948	92.570	175.6777
35.894180	92.568	175.5822
36.154285	92.564	175.4895
36.416275	92.560	175.4009
36.680161	92.557	175.3154
36.945961	92.554	175.2311
37.213688	92.551	175.1417
37.483353	92.548	175.0501
37.754974	92.544	174.9591
38.028561	92.539	174.8719
38.304131	92.532	174.7909
38.581699	92.526	174.7168
38.861279	92.521	174.6467
39.142883	92.519	174.5728
39.426529	92.517	174.4857
39.712231	92.516	174.3820
40.000000	92.513	174.2622
40.289856	92.507	174.1310
40.581814	92.498	174.0023
40.875885	92.486	173.8915
41.172089	92.473	173.8057
41.470440	92.461	173.7471
41.770950	92.452	173.7108
42.073643	92.448	173.6801
42.378525	92.449	173.6328
42.685616	92.452	173.5557
42.994934	92.456	173.4431
43.306492	92.457	173.3000
43.620308	92.452	173.1422
43.936401	92.442	172.9909
44.254780	92.429	172.8616
44.575470	92.414	172.7617
44.898483	92.401	172.6862
45.223835	92.390	172.6217
45.551544	92.382	172.5556
45.881630	92.376	172.4801
46.214108	92.369	172.3923
46.548996	92.361	172.2971
46.886307	92.352	172.2040
47.226067	92.341	172.1209
47.568283	92.329	172.0538
47.912983	92.319	172.0033
48.260181	92.312	171.9603
48.609894	92.308	171.9140
48.962143	92.307	171.8513
49.316940	92.307	171.7631
49.674313	92.304	171.6525
50.034271	92.298	171.5316
50.396843	92.288	171.4160
50.762039	92.275	171.3177
51.129883	92.262	171.2393
51.500389	92.249	171.1782
51.873581	92.237	171.1332
52.249481	92.227	171.1018
52.628101	92.220	171.0804
53.009464	92.217	171.0550
53.393593	92.219	171.0026
53.780506	92.218	170.9097
54.170223	92.213	170.7854
54.562763	92.201	170.6617
54.958145	92.184	170.5724
55.356396	92.169	170.5228
55.757530	92.159	170.4874
56.161572	92.153	170.4288
56.568542	92.146	170.3360
56.978462	92.133	170.2385
57.391350	92.117	170.1758
57.807232	92.105	170.1541
58.226128	92.102	170.1281
58.648056	92.104	170.0420
59.073048	92.101	169.8852
59.501114	92.085	169.7127
59.932281	92.057	169.6060
60.366577	92.034	169.5935
60.804020	92.028	169.6197
61.244629	92.036	169.5889
61.688435	92.047	169.4419
62.135452	92.046	169.2023
62.585712	92.027	168.9554
63.039234	91.993	168.7865
63.496040	91.957	168.7333
63.956161	91.930	168.7785
64.419617	91.919	168.8546
64.886421	91.923	168.8817
65.356621	91.931	168.8131
65.830215	91.930	168.6706
66.307251	91.917	168.5308
66.787743	91.900	168.4534
67.271713	91.887	168.4258
67.759193	91.882	168.3818
68.250206	91.879	168.2852
68.744774	91.869	168.1645
69.242928	91.855	168.0641
69.744690	91.842	167.9807
70.250084	91.830	167.8831
70.759148	91.814	167.7776
71.271896	91.794	167.7066
71.788361	91.778	167.6794
72.308571	91.770	167.6447
72.832550	91.763	167.5610
73.360321	91.750	167.4613
73.891922	91.733	167.4012
74.427376	91.721	167.3708
74.966705	91.715	167.3111
75.509949	91.705	167.2044
76.057121	91.687	167.1041
76.608261	91.666	167.0569
77.163399	91.652	167.0382
77.722557	91.642	166.9924
78.285767	91.631	166.9106
78.853058	91.615	166.8314
79.424461	91.598	166.7789
80.000000	91.585	166.7337
80.579712	91.574	166.6657
81.163628	91.561	166.5793
81.751770	91.545	166.5075
82.344177	91.530	166.4604
82.940880	91.518	166.4114
83.541901	91.507	166.3417
84.147285	91.494	166.2640
84.757050	91.479	166.1940
85.371231	91.462	166.1289
85.989868	91.442	166.0767
86.612984	91.424	166.0561
87.240616	91.412	166.0446
87.872803	91.404	165.9901
88.509560	91.392	165.8889
89.150940	91.372	165.7969
89.796967	91.351	165.7408
90.447670	91.334	165.6953
91.103088	91.318	165.6413
91.763260	91.301	165.5892
92.428215	91.285	165.5414
93.097992	91.269	165.4904
93.772614	91.254	165.4360
94.452133	91.237	165.3781
95.136566	91.220	165.3186
95.825966	91.202	165.2634
96.520363	91.185	165.2089
97.219788	91.167	165.1544
97.924286	91.150	165.1098
98.633881	91.135	165.0641
99.348625	91.119	165.0028
100.068542	91.100	164.9509
100.793686	91.083	164.9174
101.524078	91.066	164.8860
102.259766	91.049	164.8755
103.000778	91.037	164.8671
103.747162	91.026	164.8011
104.498962	91.005	164.7257
105.256203	90.982	164.7045
106.018929	90.964	164.6833
106.787186	90.947	164.6377
107.561012	90.929	164.5886
108.340446	90.909	164.5307
109.125526	90.887	164.5021
109.916290	90.872	164.4893
110.712791	90.857	164.4418
111.515060	90.837	164.4059
112.323143	90.819	164.3719
113.137085	90.796	164.3416
113.956924	90.775	164.3594
114.782700	90.761	164.3095
115.614464	90.731	164.2448
116.452255	90.704	164.3115
117.296112	90.699	164.3065
118.146095	90.680	164.2005
119.002228	90.654	164.1759
119.864563	90.637	164.1499
120.733154	90.615	164.1144
121.608040	90.597	164.1216
122.489258	90.583	164.0721
123.376869	90.555	164.0301
124.270905	90.532	164.0720
125.171425	90.520	164.0599
126.078468	90.498	164.0044
126.992081	90.474	164.0001
127.912323	90.455	163.9840
128.839233	90.434	163.9603
129.772842	90.413	163.9691
130.713242	90.400	163.9618
131.660431	90.382	163.8873
132.614502	90.352	163.8802
133.575485	90.334	163.9200
134.543427	90.314	163.8929
135.518387	90.291	163.9177
136.500412	90.274	163.8907
137.489548	90.246	163.8863
138.485855	90.229	163.9255
139.489380	90.213	163.8747
140.500168	90.186	163.8460
141.518295	90.162	163.8855
142.543793	90.146	163.9102
143.576721	90.128	163.9095
144.617142	90.110	163.9188
145.665100	90.090	163.9169
146.720642	90.070	163.9283
147.783844	90.045	163.9215
148.854752	90.022	163.9810
149.933411	90.008	163.9724
151.019897	89.980	163.9528
152.114243	89.957	163.9848
153.216522	89.928	163.9766
154.326797	89.908	164.0601
155.445114	89.893	164.0155
156.571533	89.867	164.0182
157.706116	89.840	163.9893
158.848923	89.808	164.0815
160.000000	89.794	164.0899
161.159424	89.762	164.1068
162.327255	89.741	164.1470
163.503540	89.715	164.1628
164.688354	89.693	164.1829
165.881760	89.667	164.1898
167.083801	89.641	164.2366
168.294571	89.623	164.2723
169.514099	89.596	164.3202
170.742462	89.577	164.3311
171.979736	89.533	164.4723
173.225967	89.540	164.6015
174.481232	89.510	164.4692
175.745605	89.475	164.5600
177.019119	89.459	164.6178
178.301880	89.442	164.6038
179.593933	89.420	164.5685
180.895340	89.388	164.6282
182.206177	89.361	164.6900
183.526520	89.355	164.8782
184.856430	89.332	164.7496
186.195984	89.318	164.9699
187.545227	89.301	164.8246
188.904266	89.270	164.9621
190.273132	89.253	164.9932
191.651932	89.228	165.0138
193.040726	89.205	165.1001
194.439575	89.194	165.1629
195.848572	89.177	165.0934
197.267761	89.149	165.2665
198.697250	89.145	165.2436
200.137085	89.113	165.3295
201.587372	89.089	165.4137
203.048157	89.077	165.4813
204.519531	89.051	165.4893
206.001556	89.033	165.5560
207.494324	89.016	165.6424
208.997925	88.999	165.6808
210.512405	88.972	165.8182
212.037857	88.958	165.8592
213.574371	88.930	165.9444
215.122025	88.900	165.9430
216.680893	88.894	166.0892
218.251053	88.861	166.0712
219.832581	88.848	166.1903
221.425583	88.821	166.2602
223.030121	88.796	166.3712
224.646286	88.770	166.4205
226.274170	88.746	166.5208
227.913849	88.718	166.5921
229.565399	88.692	166.7174
231.228928	88.680	166.7733
232.904510	88.649	166.8824
234.592224	88.625	166.8985
236.292191	88.607	167.0941
238.004456	88.559	167.2608
239.729126	88.555	167.2581
241.466309	88.520	167.4548
243.216080	88.485	167.5264
244.978516	88.463	167.6647
246.753738	88.432	167.8924
248.541809	88.418	168.0467
250.342850	88.379	168.2406
252.156937	88.351	168.4537
253.984161	88.334	168.7338
255.824646	88.325	168.9335
257.678467	88.313	169.3732
259.545685	88.302	169.5664
261.426483	88.318	169.9832
263.320862	88.322	170.2189
265.229004	88.353	170.3158
267.150970	88.381	170.5991
269.086853	88.396	170.5419
271.036774	88.408	170.5004
273.000824	88.428	170.4965
274.979095	88.421	170.4189
276.971710	88.409	170.4522
278.978760	88.396	170.4161
281.000336	88.385	170.3933
283.036591	88.371	170.3487
285.087585	88.343	170.4449
287.153442	88.322	170.4650
289.234283	88.306	170.4869
291.330200	88.284	170.5309
293.441284	88.266	170.5822
295.567688	88.252	170.6550
297.709503	88.224	170.7613
299.866821	88.195	170.8282
302.039795	88.180	170.9420
304.228485	88.162	171.0070
306.433044	88.137	171.0940
308.653595	88.122	171.1923
310.890228	88.110	171.4267
313.143066	88.076	171.4868
315.412231	88.059	171.5687
317.697845	88.038	171.7000
320.000000	88.013	171.8016
322.318848	87.996	171.9506
324.654510	87.981	172.0206
327.007080	87.964	172.1588
329.376709	87.943	172.2779
331.763519	87.929	172.4272
334.167603	87.906	172.5541
336.589142	87.889	172.7058
339.028198	87.863	172.7961
341.484924	87.852	172.9458
343.959473	87.837	173.0959
346.451935	87.814	173.2256
348.962463	87.799	173.3824
351.491211	87.785	173.5343
354.038239	87.765	173.6169
356.603760	87.751	173.7875
359.187866	87.737	173.9214
361.790680	87.720	174.0997
364.412354	87.703	174.2429
367.053040	87.692	174.3375
369.712860	87.675	174.5413
372.391968	87.660	174.6642
375.090454	87.644	174.8725
377.808533	87.631	175.0142
380.546265	87.617	175.1517
383.303864	87.600	175.3555
386.081451	87.584	175.4718
388.879150	87.567	175.6351
391.697144	87.556	175.7852
394.535522	87.539	175.9534
397.394501	87.523	176.1442
400.274170	87.510	176.2900
403.174744	87.497	176.4866
406.096313	87.480	176.6290
409.039062	87.464	176.8090
412.003113	87.455	176.9711
414.988647	87.437	177.1484
417.995850	87.429	177.3349
421.024811	87.414	177.4821
424.075714	87.396	177.6640
427.148743	87.382	177.8438
430.244049	87.367	178.0208
433.361786	87.352	178.2195
436.502106	87.340	178.3797
439.665161	87.325	178.5676
442.851166	87.312	178.7420
446.060242	87.297	178.9315
449.292572	87.285	179.1274
452.548340	87.270	179.3107
455.827698	87.258	179.5189
459.130798	87.241	179.7021
462.457855	87.227	179.8865
465.809021	87.217	-179.9071
469.184448	87.208	-179.7263
472.584381	87.190	-179.4991
476.008911	87.179	-179.3225
479.458252	87.166	-179.1156
482.932617	87.154	-178.9246
486.432159	87.147	-178.7013
489.957031	87.134	-178.5081
493.507477	87.121	-178.3010
497.083618	87.114	-178.1266
500.685699	87.104	-177.8923
504.313873	87.091	-177.6908
507.968323	87.084	-177.4994
511.649292	87.074	-177.2785
515.356934	87.065	-177.0785
519.091370	87.055	-176.8575
522.852966	87.042	-176.6414
526.641724	87.032	-176.4305
530.458008	87.019	-176.2043
534.301941	87.010	-175.9633
538.173706	87.003	-175.7444
542.073547	86.986	-175.5113
546.001648	86.977	-175.2689
549.958191	86.971	-175.0259
553.943420	86.959	-174.7851
557.957520	86.950	-174.5598
562.000671	86.941	-174.3246
566.073181	86.933	-174.1054
570.175171	86.922	-173.8049
574.306885	86.914	-173.5618
578.468567	86.905	-173.3297
582.660400	86.896	-173.0338
586.882568	86.891	-172.7578
591.135376	86.884	-172.5251
595.419006	86.876	-172.2559
599.733643	86.867	-172.0010
604.079590	86.861	-171.7122
608.456970	86.855	-171.4495
612.866089	86.849	-171.1889
617.307190	86.837	-170.8797
621.780457	86.830	-170.6199
626.286133	86.822	-170.3242
630.824463	86.812	-170.0372
635.395691	86.809	-169.7725
640.000000	86.805	-169.4576
644.637695	86.799	-169.1383
649.309021	86.792	-168.8506
654.014160	86.781	-168.5598
658.753418	86.783	-168.2374
663.527039	86.776	-167.9542
668.335205	86.771	-167.6159
673.178284	86.770	-167.3189
678.056396	86.768	-166.9905
682.969849	86.759	-166.6638
687.918945	86.760	-166.3337
692.903870	86.756	-166.0298
697.924927	86.753	-165.6746
702.982422	86.749	-165.3775
708.076477	86.749	-165.0126
713.207520	86.745	-164.6948
718.375732	86.744	-164.3389
723.581360	86.746	-164.0066
728.824707	86.747	-163.6387
734.106079	86.749	-163.3075
739.425720	86.751	-162.9410
744.783936	86.753	-162.5800
750.180908	86.755	-162.2488
755.617065	86.765	-161.8623
761.092529	86.770	-161.5153
766.607727	86.771	-161.1405
772.162903	86.779	-160.7535
777.758301	86.784	-160.4090
783.394287	86.794	-160.0169
789.071045	86.801	-159.6534
794.789001	86.810	-159.2530
800.548340	86.824	-158.8937
806.349487	86.833	-158.5379
812.192627	86.841	-158.1761
818.078125	86.853	-157.7533
824.006226	86.872	-157.3816
829.977295	86.883	-157.0203
835.991699	86.900	-156.6349
842.049622	86.921	-156.2850
848.151428	86.935	-155.8680
854.297485	86.958	-155.5081
860.488098	86.977	-155.1335
866.723572	86.999	-154.7483
873.004211	87.022	-154.3793
879.330322	87.047	-154.0105
885.702332	87.070	-153.6460
892.120483	87.098	-153.2856
898.585144	87.121	-152.8913
905.096680	87.150	-152.5374
911.655396	87.177	-152.2002
918.261597	87.214	-151.8135
924.915710	87.244	-151.4915
931.618042	87.273	-151.1316
938.368896	87.308	-150.8438
945.168762	87.345	-150.4416
952.017822	87.380	-150.1206
958.916504	87.417	-149.8352
965.865234	87.458	-149.4768
972.864319	87.496	-149.1697
979.914062	87.540	-148.8712
987.014954	87.581	-148.5629
994.167236	87.623	-148.2655
1001.371399	87.669	-147.9641
1008.627747	87.707	-147.6992
1015.936646	87.758	-147.4504
1023.298584	87.804	-147.1740
1030.713867	87.849	-146.9093
1038.182739	87.895	-146.6629
1045.705933	87.942	-146.3942
1053.283447	87.987	-146.1819
1060.916016	88.035	-145.9236
1068.603882	88.084	-145.7205
1076.347412	88.136	-145.4954
1084.147095	88.176	-145.2870
1092.003296	88.215	-145.1029
1099.916382	88.250	-144.8658
1107.886841	88.295	-144.7023
1115.915039	88.331	-144.5074
1124.001343	88.376	-144.3328
1132.146362	88.412	-144.1818
1140.350342	88.453	-143.9955
1148.613770	88.493	-143.8133
1156.937134	88.530	-143.6782
1165.320801	88.571	-143.5259
1173.765137	88.606	-143.3730
1182.270752	88.646	-143.2370
1190.838013	88.685	-143.0892
1199.467285	88.727	-142.9552
1208.159180	88.763	-142.8299
1216.913940	88.814	-142.7202
1225.732178	88.875	-142.5960
1234.614380	88.931	-142.4938
1243.560913	88.987	-142.4105
1252.572266	89.047	-142.2878
1261.648926	89.104	-142.2092
1270.791382	89.160	-142.1027
1280.000000	89.216	-142.0329
1289.275391	89.270	-141.9361
1298.618042	89.326	-141.8721
1308.028320	89.379	-141.8161
1317.506836	89.434	-141.7382
1327.054077	89.485	-141.6994
1336.670410	89.536	-141.6001
1346.356567	89.587	-141.5659
1356.112793	89.635	-141.5058
1365.939697	89.729	-141.4568
1375.837891	89.778	-141.4110
1385.807739	89.828	-141.3735
1395.849854	89.878	-141.3125
1405.964844	89.923	-141.2615
1416.152954	89.972	-141.2047
1426.415039	90.020	-141.1434
1436.751465	90.064	-141.0836
1447.162720	90.111	-141.0260
1457.649414	90.151	-140.9744
1468.212158	90.195	-140.8802
1478.851440	90.239	-140.7908
1489.567871	90.282	-140.7404
1500.361816	90.324	-140.6504
1511.234131	90.361	-140.5666
1522.185059	90.401	-140.4802
1533.215454	90.435	-140.3722
1544.325806	90.462	-140.2655
1555.516602	90.493	-140.1531
1566.788574	90.521	-140.0382
1578.142090	90.548	-139.9368
1589.578003	90.580	-139.7999
1601.096680	90.606	-139.6854
1612.698975	90.637	-139.5405
1624.385254	90.664	-139.4013
1636.156250	90.695	-139.2658
1648.012451	90.721	-139.1387
1659.954590	90.753	-138.9921
1671.983398	90.785	-138.8415
1684.099243	90.816	-138.6692
1696.302856	90.847	-138.5258
1708.594971	90.878	-138.3924
1720.976196	90.910	-138.1926
1733.447144	90.945	-138.0108
1746.008423	90.982	-137.8722
1758.660645	91.017	-137.6808
1771.404663	91.053	-137.5340
1784.240967	91.090	-137.3376
1797.170288	91.127	-137.1948
1810.193359	91.163	-137.0193
1823.310791	91.204	-136.8325
1836.523193	91.245	-136.6624
1849.831421	91.282	-136.4927
1863.236084	91.327	-136.3128
1876.737793	91.367	-136.1076
1890.337524	91.408	-135.9490
1904.035645	91.451	-135.7848
1917.833008	91.496	-135.6025
1931.730469	91.540	-135.4399
1945.728638	91.584	-135.2587
1959.828125	91.632	-135.1007
1974.029907	91.673	-134.9363
1988.334473	91.722	-134.7683
2002.742798	91.772	-134.5959
2017.255493	91.813	-134.4278
2031.873291	91.869	-134.2772
2046.597168	91.919	-134.1236
2061.427734	91.971	-133.9933
2076.365479	92.021	-133.8340
2091.411865	92.073	-133.7158
2106.566895	92.127	-133.5554
2121.832031	92.182	-133.4239
2137.207764	92.234	-133.2850
2152.694824	92.290	-133.1782
2168.294189	92.348	-133.0494
2184.006592	92.402	-132.9381
2199.832764	92.460	-132.8297
2215.773682	92.521	-132.7399
2231.830078	92.581	-132.6335
2248.002686	92.638	-132.5656
2264.292725	92.697	-132.4867
2280.700684	92.759	-132.4245
2297.227539	92.820	-132.3555
2313.874268	92.881	-132.3206
2330.641602	92.943	-132.2743
2347.530273	93.006	-132.2588
2364.541504	93.068	-132.2260
2381.676025	93.132	-132.2213
2398.934570	93.196	-132.2192
2416.318359	93.256	-132.2461
2433.827881	93.324	-132.2526
2451.464355	93.388	-132.2789
2469.228760	93.452	-132.3409
2487.121826	93.511	-132.3864
2505.144531	93.578	-132.4522
2523.297852	93.642	-132.5370
2541.582764	93.707	-132.6434
2560.000000	93.765	-132.7630
2578.550781	93.831	-132.8653
2597.236084	93.891	-133.0091
2616.056641	93.951	-133.1463
2635.013672	94.010	-133.3137
2654.108154	94.067	-133.4760
2673.340820	94.126	-133.6732
2692.713135	94.184	-133.8696
2712.225586	94.240	-134.0710
2731.879395	94.293	-134.3034
2751.675781	94.345	-134.5463
2771.615479	94.399	-134.8056
2791.699707	94.450	-135.0490
2811.929688	94.496	-135.3565
2832.305908	94.540	-135.6407
2852.830078	94.581	-135.9413
2873.502930	94.622	-136.2660
2894.325439	94.660	-136.5937
2915.298828	94.695	-136.9189
2936.424316	94.726	-137.2799
2957.702881	94.756	-137.6300
2979.135742	94.785	-137.9730
3000.723633	94.806	-138.3152
3022.468262	94.825	-138.7280
3044.370117	94.844	-139.1203
3066.430908	94.854	-139.4948
3088.651611	94.865	-139.8854
3111.033203	94.870	-140.2710
3133.577148	94.872	-140.6749
3156.284180	94.869	-141.0787
3179.156006	94.863	-141.4520
3202.193359	94.854	-141.8341
3225.397949	94.842	-142.2228
3248.770508	94.824	-142.5918
3272.312500	94.803	-142.9677
3296.024902	94.779	-143.3295
3319.909180	94.752	-143.6759
3343.966797	94.717	-144.0197
3368.198486	94.682	-144.3349
3392.605713	94.643	-144.6419
3417.189941	94.603	-144.9251
3441.952393	94.558	-145.1958
3466.894287	94.513	-145.4357
3492.016846	94.466	-145.6894
3517.321289	94.414	-145.9013
3542.809326	94.365	-146.0714
3568.481934	94.308	-146.2826
3594.340576	94.251	-146.4261
3620.386719	94.189	-146.5641
3646.621582	94.128	-146.6807
3673.046387	94.066	-146.7739
3699.662842	94.001	-146.8539
3726.472168	93.933	-146.8896
3753.475586	93.872	-146.9180
3780.675049	93.799	-146.8817
3808.071289	93.731	-146.8697
3835.666016	93.662	-146.8054
3863.460938	93.592	-146.7176
3891.457275	93.524	-146.5904
3919.656250	93.451	-146.4745
3948.059814	93.381	-146.3092
3976.668945	93.311	-146.1062
4005.485596	93.241	-145.8955
4034.510986	93.171	-145.6587
4063.746582	93.106	-145.3674
4093.194336	93.036	-145.0725
4122.855469	92.973	-144.7505
4152.730957	92.912	-144.3632
4182.823730	92.848	-144.0043
4213.133789	92.788	-143.5883
4243.664062	92.734	-143.1651
4274.415527	92.674	-142.7211
4305.389648	92.624	-142.2379
4336.588379	92.575	-141.7621
4368.013184	92.532	-141.2350
4399.665527	92.491	-140.6804
4431.547363	92.453	-140.0892
4463.660156	92.424	-139.5415
4496.005371	92.393	-138.9480
4528.585449	92.367	-138.3170
4561.401367	92.350	-137.7338
4594.455078	92.340	-137.0783
4627.748535	92.327	-136.4529
4661.283203	92.321	-135.7919
4695.060547	92.317	-135.1530
4729.083008	92.325	-134.4800
4763.352051	92.332	-133.8068
4797.869141	92.344	-133.2030
4832.636719	92.357	-132.5148
4867.655762	92.381	-131.8984
4902.928711	92.400	-131.2813
4938.457520	92.429	-130.6251
4974.243652	92.454	-129.9841
5010.289062	92.494	-129.3777
5046.595703	92.533	-128.7072
5083.165527	92.574	-128.0607
5120.000000	92.625	-127.4302
5157.101562	92.682	-126.8018
5194.472168	92.748	-126.1356
5232.113281	92.822	-125.5064
5270.027344	92.919	-124.8078
5308.216309	93.025	-124.1733
5346.681641	93.145	-123.5724
5385.426270	93.290	-123.0761
5424.451172	93.453	-122.6437
5463.758789	93.630	-122.3284
5503.351562	93.825	-122.2253
5543.230957	94.036	-122.3293
5583.399414	94.265	-122.6696
5623.859375	94.492	-123.4486
5664.611816	94.711	-124.5441
5705.660156	94.909	-126.0703
5747.005859	95.060	-128.0137
5788.650879	95.139	-130.2756
5830.597656	95.137	-132.7552
5872.848633	95.035	-135.2674
5915.405762	94.836	-137.6379
5958.271484	94.548	-139.6071
6001.447266	94.199	-141.1432
6044.936523	93.806	-142.1306
6088.740234	93.398	-142.5616
6132.861816	92.993	-142.4994
6177.303223	92.608	-141.9548
6222.066406	92.251	-141.0709
6267.154297	91.934	-139.8196
6312.568359	91.641	-138.4326
6358.312012	91.389	-136.8574
6404.386719	91.176	-135.0276
6450.795898	91.011	-133.1876
6497.541016	90.880	-131.3264
6544.625000	90.778	-129.3439
6592.049805	90.720	-127.4313
6639.818359	90.671	-125.4349
6687.933594	90.665	-123.5688
6736.396973	90.685	-121.7126
6785.211426	90.738	-119.8409
6834.379883	90.810	-118.0797
6883.904785	90.929	-116.3316
6933.788574	91.096	-114.6806
6984.033691	91.278	-113.1074
7034.642578	91.493	-111.5712
7085.618652	91.717	-110.2892
7136.963867	91.982	-108.9335
7188.681152	92.269	-107.7908
7240.773438	92.585	-106.8432
7293.243164	92.922	-106.0439
7346.092773	93.281	-105.4840
7399.325684	93.668	-105.1333
7452.944336	94.077	-105.1146
7506.951172	94.506	-105.4184
7561.350098	94.945	-106.1745
7616.142578	95.385	-107.2782
7671.332031	95.834	-108.9322
7726.921875	96.358	-111.0899
7782.914551	96.711	-113.5687
7839.312500	97.039	-116.8044
7896.119629	97.287	-120.6996
7953.337891	97.428	-125.1254
8010.971191	97.437	-129.8083
8069.021973	97.310	-134.5892
8127.493164	97.038	-139.2167
8186.388672	96.649	-143.4908
8245.710938	96.157	-147.2399
8305.461914	95.586	-150.2942
8365.647461	94.972	-152.7993
8426.267578	94.329	-154.6368
8487.328125	93.671	-155.8930
8548.831055	93.004	-156.5430
8610.779297	92.362	-156.7079
8673.176758	91.721	-156.1575
8736.026367	91.131	-155.1021
8799.331055	90.635	-153.5491
8863.094727	90.256	-152.0924
8927.320312	89.942	-151.0378
8992.010742	89.612	-150.3482
9057.170898	89.268	-149.7751
9122.802734	88.892	-149.0891
9188.910156	88.497	-148.3107
9255.497070	88.120	-147.3504
9322.566406	87.753	-146.2726
9390.121094	87.399	-145.0534
9458.166016	87.064	-143.7821
9526.704102	86.728	-142.6617
9595.738281	86.423	-141.1804
9665.273438	86.123	-139.9904
9735.311523	85.831	-138.6060
9805.857422	85.557	-137.2516
9876.915039	85.291	-135.9281
9948.487305	85.015	-134.7930
10020.578125	84.746	-133.5415
10093.191406	84.471	-132.2251
10166.331055	84.187	-130.8631
10240.000000	83.906	-129.6237
10314.203125	83.642	-128.4077
10388.944336	83.355	-126.9724
10464.226562	83.067	-125.5596
10540.054688	82.788	-124.0897
10616.432617	82.522	-122.6309
10693.363281	82.221	-121.1314
10770.852539	81.932	-119.4340
10848.902344	81.647	-117.6365
10927.517578	81.367	-115.7789
11006.703125	81.133	-113.8343
11086.461914	80.845	-111.7450
11166.798828	80.582	-109.6492
11247.718750	80.359	-107.5502
11329.223633	80.158	-105.4169
11411.320312	79.936	-102.9734
11494.011719	79.776	-100.4444
11577.301758	79.585	-98.2675
11661.195312	79.411	-96.2365
11745.697266	79.247	-93.7432
11830.811523	79.083	-91.5812
11916.542969	78.917	-89.0903
12002.894531	78.790	-86.4210
12089.873047	78.701	-83.9898
12177.480469	78.636	-81.7885
12265.723633	78.548	-79.3538
12354.606445	78.508	-77.2862
12444.132812	78.474	-74.9202
12534.308594	78.419	-72.7581
12625.136719	78.367	-70.5030
12716.624023	78.300	-68.7206
12808.773438	78.271	-66.1445
12901.591797	78.208	-64.1525
12995.082031	78.161	-61.1903
13089.250000	78.171	-59.4089
13184.099609	78.117	-56.7374
13279.636719	78.144	-53.9996
13375.867188	78.105	-51.7645
13472.793945	78.146	-49.1088
13570.422852	78.163	-46.2781
13668.759766	78.190	-43.5518
13767.809570	78.326	-40.8308
13867.577148	78.444	-37.9758
13968.067383	78.654	-35.4480
14069.285156	78.830	-32.7690
14171.237305	78.979	-30.1548
14273.927734	79.262	-27.6693
14377.362305	79.512	-24.9292
14481.546875	79.830	-22.2327
14586.486328	80.152	-19.5853
14692.185547	80.547	-17.3275
14798.651367	81.031	-14.7553
14905.888672	81.541	-12.8044
15013.902344	82.145	-10.9900
15122.700195	82.843	-9.8510
15232.285156	83.605	-9.4705
15342.664062	84.454	-9.8809
15453.843750	85.277	-11.7322
15565.829102	86.140	-15.1651
15678.625000	86.857	-20.5296
15792.239258	87.301	-27.2589
15906.675781	87.408	-34.7156
16021.942383	87.148	-42.0900
16138.043945	86.603	-47.7781
16254.986328	85.884	-52.1001
16372.777344	85.165	-54.8681
16491.421875	84.417	-56.4589
16610.923828	83.734	-56.6441
16731.294922	83.119	-56.6138
16852.535156	82.590	-55.3931
16974.656250	82.148	-54.3001
17097.662109	81.789	-52.5416
17221.558594	81.482	-50.9634
17346.353516	81.301	-48.9288
17472.052734	81.126	-47.1096
17598.662109	81.065	-45.2581
17726.189453	81.022	-43.3783
17854.640625	81.045	-42.2477
17984.021484	81.197	-40.4252
18114.341797	81.430	-39.3334
18245.605469	81.725	-38.9588
18377.820312	82.050	-39.7009
18510.994141	82.382	-41.3768
18645.132812	82.496	-43.4401
18780.242188	82.584	-45.5754
18916.332031	82.624	-47.7306
19053.408203	82.643	-49.7100
19191.476562	82.643	-51.3872
19330.546875	82.648	-53.4937
19470.623047	82.766	-56.1351
19611.714844	82.835	-58.4790
19753.830078	82.856	-61.3056
19896.974609	82.912	-65.1767
