* Measurement data measured by REW V5.20.4
* Source: Microphone (2- KM-HIFI-384KHZ), MICROPHONE (Master Volume), R, volume: 0.250
* Format: 256k Log Swept Sine, 1 sweep at -6.0 dBFS with no timing reference
* Dated: 25 Mar, 2022 5:16:30 PM
* REW Settings:
*  C-weighting compensation: Off
*  Target level: 75.0 dB
* Note: 
* Measurement: B2G R
* Smoothing: None
* Frequency Step: 1/96 octave
* Start Frequency: 20.000 Hz
*
* Freq(Hz)	SPL(dB)	Phase(degrees)
20.000000	93.173	-178.9582
20.144928	93.172	-179.0783
20.290907	93.171	-179.1993
20.437943	93.170	-179.3195
20.586044	93.169	-179.4358
20.735220	93.168	-179.5481
20.885475	93.167	-179.6603
21.036821	93.166	-179.7740
21.189262	93.165	-179.8880
21.342808	93.166	179.9976
21.497467	93.166	179.8829
21.653246	93.166	179.7701
21.810154	93.166	179.6600
21.968201	93.166	179.5504
22.127390	93.165	179.4395
22.287735	93.164	179.3296
22.449242	93.164	179.2251
22.611917	93.163	179.1249
22.775772	93.162	179.0269
22.940815	93.162	178.9320
23.107054	93.163	178.8346
23.274498	93.163	178.7328
23.443153	93.164	178.6287
23.613033	93.164	178.5226
23.784142	93.163	178.4149
23.956491	93.162	178.3054
24.130091	93.161	178.1963
24.304947	93.158	178.0922
24.481071	93.154	177.9938
24.658470	93.150	177.9083
24.837156	93.146	177.8338
25.017136	93.144	177.7650
25.198421	93.143	177.7015
25.381020	93.145	177.6354
25.564941	93.148	177.5661
25.750195	93.153	177.4834
25.936790	93.158	177.3871
26.124741	93.163	177.2679
26.314051	93.166	177.1289
26.504732	93.167	176.9817
26.696796	93.164	176.8287
26.890253	93.156	176.6829
27.085112	93.145	176.5467
27.281382	93.132	176.4294
27.479073	93.119	176.3316
27.678198	93.106	176.2593
27.878765	93.096	176.2003
28.080786	93.089	176.1512
28.284271	93.085	176.0977
28.489231	93.084	176.0367
28.695675	93.084	175.9606
28.903616	93.085	175.8696
29.113064	93.085	175.7612
29.324028	93.083	175.6433
29.536524	93.080	175.5223
29.750557	93.075	175.4067
29.966141	93.068	175.2993
30.183289	93.063	175.2003
30.402010	93.058	175.1093
30.622314	93.055	175.0268
30.844217	93.052	174.9462
31.067726	93.050	174.8651
31.292856	93.049	174.7789
31.519617	93.048	174.6892
31.748020	93.047	174.5980
31.978081	93.046	174.5058
32.209808	93.044	174.4130
32.443211	93.043	174.3211
32.678310	93.041	174.2292
32.915108	93.040	174.1365
33.153625	93.039	174.0372
33.393871	93.035	173.9332
33.635857	93.027	173.8254
33.879597	93.022	173.7174
34.125103	93.018	173.6116
34.372387	93.012	173.5101
34.621464	93.006	173.4199
34.872345	93.000	173.3391
35.125042	92.995	173.2659
35.379574	92.991	173.1941
35.635948	92.989	173.1195
35.894180	92.987	173.0388
36.154285	92.986	172.9462
36.416275	92.983	172.8449
36.680161	92.980	172.7395
36.945961	92.974	172.6356
37.213688	92.968	172.5371
37.483353	92.961	172.4482
37.754974	92.955	172.3693
38.028561	92.949	172.2964
38.304131	92.944	172.2208
38.581699	92.938	172.1401
38.861279	92.933	172.0531
39.142883	92.928	171.9594
39.426529	92.921	171.8645
39.712231	92.914	171.7735
40.000000	92.906	171.6880
40.289856	92.899	171.6066
40.581814	92.893	171.5268
40.875885	92.888	171.4441
41.172089	92.883	171.3545
41.470440	92.877	171.2574
41.770950	92.871	171.1556
42.073643	92.864	171.0512
42.378525	92.855	170.9468
42.685616	92.846	170.8475
42.994934	92.836	170.7556
43.306492	92.826	170.6725
43.620308	92.816	170.5982
43.936401	92.808	170.5288
44.254780	92.801	170.4541
44.575470	92.796	170.3691
44.898483	92.789	170.2746
45.223835	92.780	170.1772
45.551544	92.770	170.0881
45.881630	92.760	170.0142
46.214108	92.752	169.9485
46.548996	92.748	169.8748
46.886307	92.744	169.7774
47.226067	92.737	169.6556
47.568283	92.725	169.5323
47.912983	92.709	169.4387
48.260181	92.694	169.3866
48.609894	92.685	169.3590
48.962143	92.684	169.3141
49.316940	92.685	169.2156
49.674313	92.682	169.0657
50.034271	92.669	168.9061
50.396843	92.648	168.7891
50.762039	92.628	168.7371
51.129883	92.616	168.7213
51.500389	92.613	168.6852
51.873581	92.613	168.5925
52.249481	92.607	168.4539
52.628101	92.593	168.3177
53.009464	92.575	168.2224
53.393593	92.560	168.1635
53.780506	92.548	168.1086
54.170223	92.537	168.0361
54.562763	92.524	167.9606
54.958145	92.510	167.9114
55.356396	92.500	167.8875
55.757530	92.498	167.8471
56.161572	92.499	167.7441
56.568542	92.492	167.5833
56.978462	92.473	167.4309
57.391350	92.447	167.3552
57.807232	92.428	167.3588
58.226128	92.423	167.3670
58.648056	92.425	167.2991
59.073048	92.422	167.1437
59.501114	92.405	166.9698
59.932281	92.374	166.8655
60.366577	92.350	166.8502
60.804020	92.340	166.8615
61.244629	92.339	166.8172
61.688435	92.338	166.6908
62.135452	92.325	166.5329
62.585712	92.303	166.4157
63.039234	92.282	166.3629
63.496040	92.268	166.3371
63.956161	92.260	166.2913
64.419617	92.252	166.2162
64.886421	92.243	166.1309
65.356621	92.234	166.0367
65.830215	92.222	165.9229
66.307251	92.202	165.8151
66.787743	92.179	165.7756
67.271713	92.164	165.8148
67.759193	92.167	165.8229
68.250206	92.176	165.6821
68.744774	92.163	165.4338
69.242928	92.124	165.2732
69.744690	92.086	165.3105
70.250084	92.075	165.4209
70.759148	92.085	165.3925
71.271896	92.084	165.1951
71.788361	92.059	164.9841
72.308571	92.020	164.8907
72.832550	91.986	164.9220
73.360321	91.969	165.0162
73.891922	91.974	165.0742
74.427376	91.990	164.9562
74.966705	91.985	164.6530
75.509949	91.942	164.4045
76.057121	91.889	164.4325
76.608261	91.873	164.5963
77.163399	91.884	164.5861
77.722557	91.877	164.4173
78.285767	91.850	164.3552
78.853058	91.846	164.3720
79.424461	91.854	164.1813
80.000000	91.817	163.8654
80.579712	91.748	163.8686
81.163628	91.727	164.2149
81.751770	91.769	164.3102
82.344177	91.792	163.9277
82.940880	91.745	163.5710
83.541901	91.688	163.5897
84.147285	91.674	163.7071
84.757050	91.669	163.6211
85.371231	91.638	163.5423
85.989868	91.616	163.6566
86.612984	91.631	163.6762
87.240616	91.634	163.4129
87.872803	91.588	163.1757
88.509560	91.538	163.2848
89.150940	91.539	163.4675
89.796967	91.559	163.3367
90.447670	91.536	163.0277
91.103088	91.481	162.9597
91.763260	91.455	163.1113
92.428215	91.460	163.1386
93.097992	91.452	162.9895
93.772614	91.425	162.9046
94.452133	91.409	162.9123
95.136566	91.404	162.8008
95.825966	91.375	162.5999
96.520363	91.324	162.5785
97.219788	91.296	162.7639
97.924286	91.304	162.8696
98.633881	91.313	162.7441
99.348625	91.295	162.5308
100.068542	91.258	162.4106
100.793686	91.224	162.4066
101.524078	91.199	162.4203
102.259766	91.173	162.4463
103.000778	91.159	162.5514
103.747162	91.171	162.5616
104.498962	91.173	162.3267
105.256203	91.135	162.1198
106.018929	91.096	162.1075
106.787186	91.074	162.0784
107.561012	91.040	162.0009
108.340446	90.997	162.0389
109.125526	90.968	162.2091
109.916290	90.969	162.3638
110.712791	90.985	162.3430
111.515060	90.994	162.1592
112.323143	90.984	161.8331
113.137085	90.926	161.4969
113.956924	90.843	161.5484
114.782700	90.812	161.8141
115.614464	90.794	161.8109
116.452255	90.736	161.9521
117.296112	90.726	162.4306
118.146095	90.778	162.6064
119.002228	90.820	162.4456
119.864563	90.853	162.0236
120.733154	90.815	161.3233
121.608040	90.710	161.1109
122.489258	90.659	161.2088
123.376869	90.599	161.1202
124.270905	90.527	161.3803
125.171425	90.496	161.6392
126.078468	90.450	162.0317
126.992081	90.486	162.5623
127.912323	90.534	162.4704
128.839233	90.532	162.4216
129.772842	90.559	162.3092
130.713242	90.552	161.9904
131.660431	90.536	161.8055
132.614502	90.515	161.5179
133.575485	90.462	161.3103
134.543427	90.407	161.3344
135.518387	90.382	161.4500
136.500412	90.366	161.4234
137.489548	90.341	161.3498
138.485855	90.298	161.2697
139.489380	90.258	161.4137
140.500168	90.248	161.4247
141.518295	90.205	161.4405
142.543793	90.193	161.6083
143.576721	90.185	161.5260
144.617142	90.150	161.4931
145.665100	90.130	161.5627
146.720642	90.115	161.4944
147.783844	90.081	161.5441
148.854752	90.076	161.5936
149.933411	90.034	161.6014
151.019897	90.024	161.8663
152.114243	90.003	161.7926
153.216522	89.969	162.0127
154.326797	89.965	161.8657
155.445114	89.885	161.9865
156.571533	89.912	162.3199
157.706116	89.889	162.0176
158.848923	89.837	162.2813
160.000000	89.818	162.2067
161.159424	89.751	162.2192
162.327255	89.711	162.0862
163.503540	89.666	161.9922
164.688354	89.670	161.7832
165.881760	89.668	161.7784
167.083801	89.712	161.8073
168.294571	89.676	162.1659
169.514099	89.709	162.7130
170.742462	89.602	162.7614
171.979736	89.534	163.3248
173.225967	89.452	162.7974
174.481232	89.364	162.7399
175.745605	89.425	162.2422
177.019119	89.403	161.8309
178.301880	89.480	162.2891
179.593933	89.483	162.5290
180.895340	89.495	163.0695
182.206177	89.376	163.2123
183.526520	89.329	163.4606
184.856430	89.258	163.0797
186.195984	89.236	162.8654
187.545227	89.248	162.8578
188.904266	89.268	162.9910
190.273132	89.289	163.3033
191.651932	89.264	163.2491
193.040726	89.172	163.0769
194.439575	89.112	163.5287
195.848572	89.138	163.1477
197.267761	89.155	163.4775
198.697250	89.172	162.9170
200.137085	89.086	163.4480
201.587372	89.115	163.7288
203.048157	89.052	163.5250
204.519531	89.028	163.8888
206.001556	88.991	163.9138
207.494324	89.009	164.2729
208.997925	88.958	164.3036
210.512405	88.978	164.3301
212.037857	88.839	164.3521
213.574371	88.925	164.5560
215.122025	88.842	163.8455
216.680893	88.807	164.3897
218.251053	88.843	164.2971
219.832581	88.850	164.3466
221.425583	88.786	164.7769
223.030121	88.845	164.7714
224.646286	88.759	165.1249
226.274170	88.725	165.0889
227.913849	88.718	164.8353
229.565399	88.581	164.9085
231.228928	88.647	165.2282
232.904510	88.622	165.3108
234.592224	88.649	165.6229
236.292191	88.639	165.8129
238.004456	88.594	165.8091
239.729126	88.601	165.8582
241.466309	88.467	165.7865
243.216080	88.544	166.1929
244.978516	88.504	165.9533
246.753738	88.459	166.2014
248.541809	88.477	166.5401
250.342850	88.428	166.5616
252.156937	88.425	166.4685
253.984161	88.391	166.7527
255.824646	88.409	166.8307
257.678467	88.364	166.6342
259.545685	88.335	166.8075
261.426483	88.333	167.0204
263.320862	88.334	167.1059
265.229004	88.276	167.2601
267.150970	88.271	167.3728
269.086853	88.246	167.5062
271.036774	88.229	167.6876
273.000824	88.238	167.7661
274.979095	88.202	167.7849
276.971710	88.164	167.8896
278.978760	88.163	168.0165
281.000336	88.144	168.2114
283.036591	88.115	168.3464
285.087585	88.077	168.5817
287.153442	88.048	168.4920
289.234283	88.055	168.7215
291.330200	88.055	168.7192
293.441284	88.031	168.9520
295.567688	88.035	169.1384
297.709503	88.005	169.2658
299.866821	87.979	169.4261
302.039795	87.935	169.4992
304.228485	87.932	169.7410
306.433044	87.931	169.6852
308.653595	87.903	169.7953
310.890228	87.894	169.9837
313.143066	87.860	170.2356
315.412231	87.848	170.4425
317.697845	87.824	170.4498
320.000000	87.807	170.6760
322.318848	87.815	170.6879
324.654510	87.775	170.9493
327.007080	87.759	171.2007
329.376709	87.716	171.2751
331.763519	87.707	171.5237
334.167603	87.716	171.6194
336.589142	87.675	171.7014
339.028198	87.672	171.9252
341.484924	87.655	171.8339
343.959473	87.603	172.1249
346.451935	87.609	172.2761
348.962463	87.598	172.3718
351.491211	87.598	172.7858
354.038239	87.571	172.9107
356.603760	87.548	173.0199
359.187866	87.515	172.9891
361.790680	87.543	173.2739
364.412354	87.537	173.4553
367.053040	87.492	173.7382
369.712860	87.470	173.8782
372.391968	87.460	173.9094
375.090454	87.461	174.0314
377.808533	87.439	174.3804
380.546265	87.431	174.6701
383.303864	87.450	174.5293
386.081451	87.396	174.8748
388.879150	87.361	175.5854
391.697144	87.363	175.7904
394.535522	87.337	175.7190
397.394501	87.329	175.5278
400.274170	87.294	175.8550
403.174744	87.254	176.2033
406.096313	87.301	176.1354
409.039062	87.328	176.1890
412.003113	87.324	176.7662
414.988647	87.255	177.2259
417.995850	87.206	177.1556
421.024811	87.220	177.4550
424.075714	87.251	177.6234
427.148743	87.269	177.7662
430.244049	87.275	178.0458
433.361786	87.236	178.4096
436.502106	87.196	178.1656
439.665161	87.238	178.2637
442.851166	87.225	178.7316
446.060242	87.159	179.0322
449.292572	87.182	178.8541
452.548340	87.178	179.2343
455.827698	87.135	179.3192
459.130798	87.122	179.3552
462.457855	87.113	179.6105
465.809021	87.079	179.7100
469.184448	87.110	179.8840
472.584381	87.090	-179.8669
476.008911	87.070	-179.5553
479.458252	87.055	-179.3303
482.932617	87.025	-179.2047
486.432159	87.009	-179.0187
489.957031	87.016	-178.9739
493.507477	87.005	-178.6587
497.083618	86.987	-178.4115
500.685699	86.980	-178.2075
504.313873	86.974	-178.1473
507.968323	86.965	-177.6969
511.649292	86.941	-177.5167
515.356934	86.934	-177.4095
519.091370	86.921	-177.1851
522.852966	86.906	-176.8225
526.641724	86.916	-176.6338
530.458008	86.886	-176.4295
534.301941	86.884	-176.2090
538.173706	86.873	-175.9062
542.073547	86.860	-175.6270
546.001648	86.871	-175.4824
549.958191	86.844	-175.2477
553.943420	86.845	-174.9787
557.957520	86.830	-174.7196
562.000671	86.812	-174.5099
566.073181	86.817	-174.1708
570.175171	86.806	-173.9944
574.306885	86.798	-173.6606
578.468567	86.789	-173.3301
582.660400	86.794	-173.1546
586.882568	86.780	-172.9097
591.135376	86.772	-172.5498
595.419006	86.764	-172.3087
599.733643	86.771	-172.0671
604.079590	86.752	-171.7768
608.456970	86.744	-171.5756
612.866089	86.739	-171.1591
617.307190	86.732	-170.9097
621.780457	86.726	-170.6250
626.286133	86.715	-170.4076
630.824463	86.716	-170.1295
635.395691	86.708	-169.8390
640.000000	86.705	-169.4881
644.637695	86.694	-169.1739
649.309021	86.692	-168.8659
654.014160	86.688	-168.5620
658.753418	86.690	-168.2720
663.527039	86.684	-167.9203
668.335205	86.679	-167.6250
673.178284	86.677	-167.3382
678.056396	86.680	-166.9875
682.969849	86.670	-166.6829
687.918945	86.675	-166.3676
692.903870	86.670	-166.0131
697.924927	86.671	-165.6920
702.982422	86.670	-165.3327
708.076477	86.667	-164.9807
713.207520	86.665	-164.6528
718.375732	86.667	-164.3004
723.581360	86.666	-163.9652
728.824707	86.671	-163.6369
734.106079	86.674	-163.2498
739.425720	86.674	-162.9227
744.783936	86.681	-162.5652
750.180908	86.682	-162.2070
755.617065	86.692	-161.8362
761.092529	86.701	-161.4646
766.607727	86.707	-161.0762
772.162903	86.717	-160.7063
777.758301	86.723	-160.3302
783.394287	86.730	-159.9866
789.071045	86.741	-159.5904
794.789001	86.754	-159.2204
800.548340	86.758	-158.8755
806.349487	86.774	-158.4530
812.192627	86.786	-158.1073
818.078125	86.804	-157.6784
824.006226	86.820	-157.3348
829.977295	86.832	-156.9436
835.991699	86.853	-156.5629
842.049622	86.866	-156.1830
848.151428	86.888	-155.8127
854.297485	86.912	-155.4279
860.488098	86.934	-155.0413
866.723572	86.955	-154.6735
873.004211	86.983	-154.3006
879.330322	87.006	-153.9330
885.702332	87.032	-153.5434
892.120483	87.059	-153.1794
898.585144	87.089	-152.8187
905.096680	87.121	-152.4785
911.655396	87.152	-152.0832
918.261597	87.184	-151.7297
924.915710	87.219	-151.4178
931.618042	87.251	-151.0722
938.368896	87.293	-150.7412
945.168762	87.325	-150.4060
952.017822	87.363	-150.0922
958.916504	87.402	-149.7511
965.865234	87.446	-149.4460
972.864319	87.486	-149.1250
979.914062	87.529	-148.8303
987.014954	87.577	-148.5801
994.167236	87.627	-148.2809
1001.371399	87.667	-147.9964
1008.627747	87.711	-147.7186
1015.936646	87.761	-147.4775
1023.298584	87.808	-147.2046
1030.713867	87.854	-146.9838
1038.182739	87.902	-146.7417
1045.705933	87.952	-146.4987
1053.283447	87.997	-146.2688
1060.916016	88.051	-146.0936
1068.603882	88.096	-145.8683
1076.347412	88.145	-145.7175
1084.147095	88.190	-145.4884
1092.003296	88.229	-145.3325
1099.916382	88.270	-145.1452
1107.886841	88.308	-144.9913
1115.915039	88.347	-144.8134
1124.001343	88.384	-144.6807
1132.146362	88.425	-144.5094
1140.350342	88.461	-144.3307
1148.613770	88.496	-144.2437
1156.937134	88.534	-144.0688
1165.320801	88.571	-143.9409
1173.765137	88.607	-143.8282
1182.270752	88.639	-143.6761
1190.838013	88.677	-143.5617
1199.467285	88.712	-143.4121
1208.159180	88.744	-143.3030
1216.913940	88.792	-143.2008
1225.732178	88.845	-143.0453
1234.614380	88.897	-142.9464
1243.560913	88.949	-142.8486
1252.572266	89.004	-142.7058
1261.648926	89.055	-142.6075
1270.791382	89.113	-142.4650
1280.000000	89.159	-142.3798
1289.275391	89.212	-142.2580
1298.618042	89.259	-142.1748
1308.028320	89.315	-142.0616
1317.506836	89.363	-141.9809
1327.054077	89.417	-141.8484
1336.670410	89.465	-141.7858
1346.356567	89.516	-141.6454
1356.112793	89.569	-141.5398
1365.939697	89.668	-141.4246
1375.837891	89.721	-141.3342
1385.807739	89.774	-141.2257
1395.849854	89.826	-141.1220
1405.964844	89.879	-141.0512
1416.152954	89.932	-140.9450
1426.415039	89.983	-140.8579
1436.751465	90.040	-140.7709
1447.162720	90.088	-140.6631
1457.649414	90.138	-140.5979
1468.212158	90.188	-140.5021
1478.851440	90.240	-140.3940
1489.567871	90.289	-140.3105
1500.361816	90.341	-140.2311
1511.234131	90.391	-140.1202
1522.185059	90.436	-140.0400
1533.215454	90.479	-139.9490
1544.325806	90.519	-139.8413
1555.516602	90.552	-139.7475
1566.788574	90.588	-139.6382
1578.142090	90.626	-139.5418
1589.578003	90.661	-139.4443
1601.096680	90.695	-139.3388
1612.698975	90.733	-139.2378
1624.385254	90.768	-139.1207
1636.156250	90.805	-138.9997
1648.012451	90.837	-138.8921
1659.954590	90.876	-138.7620
1671.983398	90.909	-138.6315
1684.099243	90.945	-138.4983
1696.302856	90.984	-138.3813
1708.594971	91.020	-138.2607
1720.976196	91.057	-138.1304
1733.447144	91.090	-137.9601
1746.008423	91.132	-137.8337
1758.660645	91.174	-137.6950
1771.404663	91.209	-137.5465
1784.240967	91.252	-137.4040
1797.170288	91.291	-137.2714
1810.193359	91.333	-137.1121
1823.310791	91.377	-136.9871
1836.523193	91.422	-136.8395
1849.831421	91.465	-136.6661
1863.236084	91.510	-136.5331
1876.737793	91.552	-136.4191
1890.337524	91.598	-136.2429
1904.035645	91.648	-136.1107
1917.833008	91.695	-135.9497
1931.730469	91.741	-135.8154
1945.728638	91.787	-135.6749
1959.828125	91.835	-135.5326
1974.029907	91.882	-135.3963
1988.334473	91.936	-135.2563
2002.742798	91.984	-135.1214
2017.255493	92.035	-134.9873
2031.873291	92.089	-134.8843
2046.597168	92.142	-134.7719
2061.427734	92.195	-134.6516
2076.365479	92.251	-134.5321
2091.411865	92.308	-134.4102
2106.566895	92.364	-134.3193
2121.832031	92.422	-134.2203
2137.207764	92.482	-134.1545
2152.694824	92.542	-134.0734
2168.294189	92.600	-133.9825
2184.006592	92.658	-133.9167
2199.832764	92.717	-133.8422
2215.773682	92.780	-133.7888
2231.830078	92.843	-133.7395
2248.002686	92.905	-133.7018
2264.292725	92.967	-133.6804
2280.700684	93.030	-133.6639
2297.227539	93.096	-133.6626
2313.874268	93.157	-133.6623
2330.641602	93.221	-133.6571
2347.530273	93.287	-133.6709
2364.541504	93.352	-133.7109
2381.676025	93.417	-133.7667
2398.934570	93.484	-133.8165
2416.318359	93.553	-133.9059
2433.827881	93.618	-133.9598
2451.464355	93.683	-134.0761
2469.228760	93.750	-134.1814
2487.121826	93.813	-134.2753
2505.144531	93.879	-134.4370
2523.297852	93.945	-134.5908
2541.582764	94.011	-134.7391
2560.000000	94.075	-134.9238
2578.550781	94.134	-135.1481
2597.236084	94.198	-135.3467
2616.056641	94.258	-135.5752
2635.013672	94.317	-135.8076
2654.108154	94.376	-136.0674
2673.340820	94.432	-136.3485
2692.713135	94.487	-136.6501
2712.225586	94.541	-136.9481
2731.879395	94.592	-137.2496
2751.675781	94.644	-137.5737
2771.615479	94.689	-137.9440
2791.699707	94.736	-138.3073
2811.929688	94.772	-138.6746
2832.305908	94.814	-139.0405
2852.830078	94.852	-139.4275
2873.502930	94.883	-139.8533
2894.325439	94.916	-140.2661
2915.298828	94.943	-140.6925
2936.424316	94.966	-141.1383
2957.702881	94.985	-141.5703
2979.135742	95.006	-142.0080
3000.723633	95.018	-142.4459
3022.468262	95.028	-142.9218
3044.370117	95.032	-143.4017
3066.430908	95.031	-143.8682
3088.651611	95.027	-144.3262
3111.033203	95.020	-144.7769
3133.577148	95.006	-145.2466
3156.284180	94.989	-145.6909
3179.156006	94.965	-146.1533
3202.193359	94.939	-146.5912
3225.397949	94.911	-146.9918
3248.770508	94.879	-147.4286
3272.312500	94.839	-147.8471
3296.024902	94.798	-148.2520
3319.909180	94.755	-148.6242
3343.966797	94.706	-148.9679
3368.198486	94.652	-149.3047
3392.605713	94.596	-149.6193
3417.189941	94.543	-149.9270
3441.952393	94.485	-150.2185
3466.894287	94.427	-150.4803
3492.016846	94.365	-150.7355
3517.321289	94.301	-150.9435
3542.809326	94.235	-151.1877
3568.481934	94.166	-151.3462
3594.340576	94.098	-151.5036
3620.386719	94.023	-151.6540
3646.621582	93.950	-151.7692
3673.046387	93.873	-151.8490
3699.662842	93.793	-151.9287
3726.472168	93.711	-151.9414
3753.475586	93.632	-151.9847
3780.675049	93.554	-151.9522
3808.071289	93.468	-151.9027
3835.666016	93.385	-151.8420
3863.460938	93.302	-151.7242
3891.457275	93.216	-151.6160
3919.656250	93.138	-151.4415
3948.059814	93.055	-151.2751
3976.668945	92.970	-151.0656
4005.485596	92.891	-150.8139
4034.510986	92.805	-150.5331
4063.746582	92.726	-150.2599
4093.194336	92.651	-149.9639
4122.855469	92.574	-149.6051
4152.730957	92.497	-149.2025
4182.823730	92.426	-148.8494
4213.133789	92.351	-148.4178
4243.664062	92.290	-147.9786
4274.415527	92.216	-147.5324
4305.389648	92.151	-146.9992
4336.588379	92.090	-146.4778
4368.013184	92.033	-145.9404
4399.665527	91.981	-145.4045
4431.547363	91.922	-144.8179
4463.660156	91.878	-144.2281
4496.005371	91.831	-143.6217
4528.585449	91.794	-142.9720
4561.401367	91.751	-142.2948
4594.455078	91.712	-141.6369
4627.748535	91.684	-140.9605
4661.283203	91.654	-140.2578
4695.060547	91.629	-139.5683
4729.083008	91.616	-138.8194
4763.352051	91.607	-138.1107
4797.869141	91.591	-137.3557
4832.636719	91.590	-136.6643
4867.655762	91.580	-135.8643
4902.928711	91.586	-135.1240
4938.457520	91.585	-134.3491
4974.243652	91.596	-133.5354
5010.289062	91.607	-132.8098
5046.595703	91.628	-132.0341
5083.165527	91.648	-131.2119
5120.000000	91.679	-130.4242
5157.101562	91.711	-129.6130
5194.472168	91.755	-128.7741
5232.113281	91.798	-127.9590
5270.027344	91.864	-127.1030
5308.216309	91.933	-126.2669
5346.681641	92.015	-125.4397
5385.426270	92.110	-124.5520
5424.451172	92.221	-123.7070
5463.758789	92.340	-122.8812
5503.351562	92.486	-122.1784
5543.230957	92.650	-121.5043
5583.399414	92.826	-120.9898
5623.859375	93.037	-120.5568
5664.611816	93.268	-120.3546
5705.660156	93.519	-120.4143
5747.005859	93.775	-120.7738
5788.650879	94.041	-121.5105
5830.597656	94.301	-122.6799
5872.848633	94.523	-124.3001
5915.405762	94.701	-126.3593
5958.271484	94.801	-128.7333
6001.447266	94.804	-131.3339
6044.936523	94.700	-133.9227
6088.740234	94.498	-136.2635
6132.861816	94.214	-138.2353
6177.303223	93.873	-139.6622
6222.066406	93.498	-140.5734
6267.154297	93.113	-140.9617
6312.568359	92.734	-140.7973
6358.312012	92.382	-140.2220
6404.386719	92.038	-139.3305
6450.795898	91.750	-138.1063
6497.541016	91.491	-136.7101
6544.625000	91.269	-135.1097
6592.049805	91.087	-133.3457
6639.818359	90.943	-131.6104
6687.933594	90.849	-129.7876
6736.396973	90.771	-127.9276
6785.211426	90.729	-126.0764
6834.379883	90.720	-124.2267
6883.904785	90.755	-122.3844
6933.788574	90.840	-120.5851
6984.033691	90.951	-118.8460
7034.642578	91.094	-117.0966
7085.618652	91.272	-115.4075
7136.963867	91.460	-113.8401
7188.681152	91.694	-112.3468
7240.773438	91.950	-110.9875
7293.243164	92.230	-109.7983
7346.092773	92.546	-108.7091
7399.325684	92.893	-107.8172
7452.944336	93.262	-107.1358
7506.951172	93.672	-106.7475
7561.350098	94.093	-106.5832
7616.142578	94.550	-106.7870
7671.332031	95.025	-107.4509
7726.921875	95.634	-108.5319
7782.914551	96.088	-110.1888
7839.312500	96.533	-112.4512
7896.119629	96.963	-115.3752
7953.337891	97.334	-119.0969
8010.971191	97.624	-123.5289
8069.021973	97.793	-128.5725
8127.493164	97.803	-134.0000
8186.388672	97.645	-139.5297
8245.710938	97.322	-144.8738
8305.461914	96.856	-149.7300
8365.647461	96.278	-153.8685
8426.267578	95.615	-157.2581
8487.328125	94.899	-159.8772
8548.831055	94.147	-161.7141
8610.779297	93.398	-162.8503
8673.176758	92.631	-163.1863
8736.026367	91.878	-162.7146
8799.331055	91.198	-161.3059
8863.094727	90.690	-159.2370
8927.320312	90.374	-157.4760
8992.010742	90.139	-156.7095
9057.170898	89.837	-156.6024
9122.802734	89.476	-156.6511
9188.910156	89.059	-156.5249
9255.497070	88.634	-156.1810
9322.566406	88.192	-155.6116
9390.121094	87.774	-154.7791
9458.166016	87.368	-153.9861
9526.704102	86.960	-152.8795
9595.738281	86.557	-151.7688
9665.273438	86.178	-150.8210
9735.311523	85.819	-149.5633
9805.857422	85.471	-148.3938
9876.915039	85.127	-146.9965
9948.487305	84.775	-145.9087
10020.578125	84.453	-144.5975
10093.191406	84.100	-143.1979
10166.331055	83.759	-141.8238
10240.000000	83.416	-140.4182
10314.203125	83.086	-138.9007
10388.944336	82.755	-137.4023
10464.226562	82.456	-135.7466
10540.054688	82.102	-134.3269
10616.432617	81.801	-132.5478
10693.363281	81.492	-130.8078
10770.852539	81.165	-128.8428
10848.902344	80.859	-127.0177
10927.517578	80.580	-125.1010
11006.703125	80.275	-122.7630
11086.461914	80.021	-120.7760
11166.798828	79.764	-118.4946
11247.718750	79.533	-116.4420
11329.223633	79.314	-114.0947
11411.320312	79.071	-111.8938
11494.011719	78.840	-109.6202
11577.301758	78.667	-107.1078
11661.195312	78.442	-104.8797
11745.697266	78.303	-102.4769
11830.811523	78.151	-100.1570
11916.542969	77.977	-97.9290
12002.894531	77.817	-95.4920
12089.873047	77.695	-93.3769
12177.480469	77.548	-91.3335
12265.723633	77.357	-88.6654
12354.606445	77.255	-86.2800
12444.132812	77.161	-83.5176
12534.308594	77.129	-81.0466
12625.136719	77.098	-78.3233
12716.624023	76.999	-75.6638
12808.773438	76.957	-73.8224
12901.591797	76.872	-71.5191
12995.082031	76.894	-69.3337
13089.250000	76.854	-66.3501
13184.099609	76.815	-64.1552
13279.636719	76.695	-61.5825
13375.867188	76.725	-59.1968
13472.793945	76.719	-56.5099
13570.422852	76.714	-53.9530
13668.759766	76.701	-51.4683
13767.809570	76.780	-48.5468
13867.577148	76.847	-45.9018
13968.067383	76.923	-43.3097
14069.285156	77.036	-40.6835
14171.237305	77.189	-37.5179
14273.927734	77.277	-35.2469
14377.362305	77.444	-32.5184
14481.546875	77.684	-29.5343
14586.486328	77.909	-26.7316
14692.185547	78.241	-24.1102
14798.651367	78.530	-21.5474
14905.888672	78.971	-19.2638
15013.902344	79.404	-17.1174
15122.700195	79.950	-15.1333
15232.285156	80.557	-13.7035
15342.664062	81.243	-13.1258
15453.843750	81.933	-13.4140
15565.829102	82.661	-14.8573
15678.625000	83.382	-17.6709
15792.239258	84.027	-22.0720
15906.675781	84.477	-28.0778
16021.942383	84.618	-34.5698
16138.043945	84.465	-41.6442
16254.986328	83.957	-47.8372
16372.777344	83.288	-52.5340
16491.421875	82.471	-55.6997
16610.923828	81.670	-57.2963
16731.294922	80.869	-58.1175
16852.535156	80.129	-57.5679
16974.656250	79.493	-56.3221
17097.662109	78.939	-54.6311
17221.558594	78.517	-52.5105
17346.353516	78.115	-50.2321
17472.052734	77.806	-48.0256
17598.662109	77.620	-46.1645
17726.189453	77.386	-44.5336
17854.640625	77.158	-43.1764
17984.021484	76.952	-41.7091
18114.341797	76.735	-40.1850
18245.605469	76.497	-38.2766
18377.820312	76.288	-35.9941
18510.994141	76.177	-33.2216
18645.132812	75.934	-29.9852
18780.242188	75.982	-26.1838
18916.332031	76.264	-22.3424
19053.408203	76.807	-20.0253
19191.476562	77.262	-19.6902
19330.546875	77.790	-20.0925
19470.623047	78.200	-20.9710
19611.714844	78.445	-22.4314
19753.830078	78.717	-23.9189
19896.974609	79.023	-26.0215
