* Measurement data measured by REW V5.20.4
* Source: Microphone (2- KM-HIFI-384KHZ), MICROPHONE (Master Volume), R, volume: 0.250
* Format: 256k Log Swept Sine, 1 sweep at -6.0 dBFS with no timing reference
* Dated: 25 Mar, 2022 5:44:31 PM
* REW Settings:
*  C-weighting compensation: Off
*  Target level: 75.0 dB
* Note: 
* Measurement: B2G330 R
* Smoothing: None
* Frequency Step: 1/96 octave
* Start Frequency: 20.000 Hz
*
* Freq(Hz)	SPL(dB)	Phase(degrees)
20.000000	91.840	-179.3177
20.144928	91.840	-179.4160
20.290907	91.842	-179.5207
20.437943	91.844	-179.6296
20.586044	91.845	-179.7418
20.735220	91.847	-179.8575
20.885475	91.848	-179.9772
21.036821	91.849	179.8971
21.189262	91.849	179.7689
21.342808	91.849	179.6427
21.497467	91.848	179.5174
21.653246	91.847	179.3976
21.810154	91.845	179.2851
21.968201	91.844	179.1752
22.127390	91.843	179.0656
22.287735	91.842	178.9570
22.449242	91.841	178.8497
22.611917	91.841	178.7433
22.775772	91.840	178.6343
22.940815	91.840	178.5227
23.107054	91.839	178.4078
23.274498	91.837	178.2873
23.443153	91.834	178.1684
23.613033	91.829	178.0547
23.784142	91.824	177.9466
23.956491	91.819	177.8469
24.130091	91.814	177.7549
24.304947	91.809	177.6714
24.481071	91.805	177.5959
24.658470	91.802	177.5267
24.837156	91.800	177.4626
25.017136	91.799	177.3941
25.198421	91.799	177.3221
25.381020	91.800	177.2453
25.564941	91.802	177.1638
25.750195	91.803	177.0806
25.936790	91.804	176.9951
26.124741	91.806	176.9045
26.314051	91.808	176.8096
26.504732	91.810	176.7135
26.696796	91.813	176.6136
26.890253	91.815	176.5031
27.085112	91.816	176.3807
27.281382	91.816	176.2391
27.479073	91.815	176.0848
27.678198	91.811	175.9203
27.878765	91.804	175.7561
28.080786	91.792	175.5957
28.284271	91.778	175.4558
28.489231	91.762	175.3402
28.695675	91.746	175.2583
28.903616	91.732	175.2060
29.113064	91.722	175.1721
29.324028	91.716	175.1450
29.536524	91.716	175.1127
29.750557	91.718	175.0594
29.966141	91.723	174.9796
30.183289	91.728	174.8690
30.402010	91.731	174.7371
30.622314	91.729	174.5979
30.844217	91.724	174.4682
31.067726	91.716	174.3561
31.292856	91.707	174.2708
31.519617	91.700	174.2072
31.748020	91.696	174.1626
31.978081	91.696	174.1145
32.209808	91.699	174.0554
32.443211	91.704	173.9703
32.678310	91.707	173.8627
32.915108	91.709	173.7338
33.153625	91.708	173.5954
33.393871	91.701	173.4594
33.635857	91.687	173.3362
33.879597	91.677	173.2319
34.125103	91.669	173.1413
34.372387	91.661	173.0598
34.621464	91.655	172.9803
34.872345	91.650	172.8987
35.125042	91.645	172.8116
35.379574	91.640	172.7206
35.635948	91.634	172.6307
35.894180	91.628	172.5442
36.154285	91.622	172.4598
36.416275	91.616	172.3757
36.680161	91.611	172.2902
36.945961	91.606	172.2017
37.213688	91.600	172.1089
37.483353	91.594	172.0183
37.754974	91.588	171.9339
38.028561	91.582	171.8578
38.304131	91.576	171.7849
38.581699	91.571	171.7096
38.861279	91.568	171.6260
39.142883	91.565	171.5267
39.426529	91.561	171.4134
39.712231	91.554	171.2957
40.000000	91.545	171.1830
40.289856	91.534	171.0834
40.581814	91.524	171.0024
40.875885	91.515	170.9333
41.172089	91.508	170.8635
41.470440	91.503	170.7827
41.770950	91.498	170.6862
42.073643	91.491	170.5752
42.378525	91.481	170.4612
42.685616	91.468	170.3585
42.994934	91.455	170.2730
43.306492	91.443	170.2032
43.620308	91.432	170.1407
43.936401	91.424	170.0738
44.254780	91.417	169.9918
44.575470	91.409	169.8979
44.898483	91.399	169.8009
45.223835	91.388	169.7078
45.551544	91.378	169.6222
45.881630	91.369	169.5410
46.214108	91.362	169.4551
46.548996	91.356	169.3584
46.886307	91.349	169.2547
47.226067	91.341	169.1520
47.568283	91.333	169.0577
47.912983	91.327	168.9681
48.260181	91.324	168.8659
48.609894	91.321	168.7382
48.962143	91.315	168.5854
49.316940	91.303	168.4264
49.674313	91.285	168.2936
50.034271	91.264	168.2106
50.396843	91.246	168.1754
50.762039	91.234	168.1615
51.129883	91.228	168.1334
51.500389	91.224	168.0724
51.873581	91.217	167.9879
52.249481	91.205	167.9026
52.628101	91.192	167.8362
53.009464	91.180	167.7862
53.393593	91.171	167.7319
53.780506	91.161	167.6567
54.170223	91.149	167.5609
54.562763	91.133	167.4616
54.958145	91.115	167.3765
55.356396	91.098	167.3076
55.757530	91.082	167.2464
56.161572	91.068	167.1826
56.568542	91.055	167.1143
56.978462	91.043	167.0453
57.391350	91.033	166.9707
57.807232	91.025	166.8783
58.226128	91.016	166.7603
58.648056	91.001	166.6315
59.073048	90.981	166.5259
59.501114	90.959	166.4711
59.932281	90.940	166.4622
60.366577	90.930	166.4583
60.804020	90.927	166.4208
61.244629	90.923	166.3458
61.688435	90.914	166.2612
62.135452	90.903	166.1917
62.585712	90.892	166.1290
63.039234	90.882	166.0502
63.496040	90.869	165.9542
63.956161	90.851	165.8740
64.419617	90.835	165.8298
64.886421	90.825	165.7907
65.356621	90.821	165.7001
65.830215	90.811	165.5438
66.307251	90.790	165.3799
66.787743	90.764	165.2755
67.271713	90.742	165.2303
67.759193	90.728	165.1772
68.250206	90.716	165.0708
68.744774	90.697	164.9424
69.242928	90.672	164.8561
69.744690	90.651	164.8234
70.250084	90.637	164.7944
70.759148	90.627	164.7277
71.271896	90.612	164.6399
71.788361	90.594	164.5725
72.308571	90.577	164.5284
72.832550	90.565	164.4727
73.360321	90.550	164.3885
73.891922	90.529	164.3080
74.427376	90.507	164.2706
74.966705	90.490	164.2653
75.509949	90.480	164.2332
76.057121	90.470	164.1448
76.608261	90.451	164.0409
77.163399	90.426	163.9807
77.722557	90.407	163.9626
78.285767	90.394	163.9295
78.853058	90.381	163.8516
79.424461	90.362	163.7679
80.000000	90.342	163.7180
80.579712	90.327	163.6738
81.163628	90.315	163.5901
81.751770	90.296	163.4860
82.344177	90.271	163.4177
82.940880	90.250	163.3951
83.541901	90.236	163.3681
84.147285	90.224	163.3025
84.757050	90.208	163.2203
85.371231	90.187	163.1515
85.989868	90.164	163.1056
86.612984	90.144	163.0805
87.240616	90.127	163.0600
87.872803	90.112	163.0142
88.509560	90.094	162.9386
89.150940	90.071	162.8711
89.796967	90.047	162.8298
90.447670	90.026	162.7913
91.103088	90.006	162.7393
91.763260	89.985	162.6859
92.428215	89.964	162.6367
93.097992	89.943	162.5880
93.772614	89.923	162.5420
94.452133	89.901	162.5102
95.136566	89.881	162.4982
95.825966	89.868	162.4671
96.520363	89.851	162.3840
97.219788	89.824	162.3177
97.924286	89.799	162.3201
98.633881	89.782	162.2935
99.348625	89.756	162.2157
100.068542	89.723	162.2375
100.793686	89.712	162.3028
101.524078	89.710	162.1931
102.259766	89.680	162.0321
103.000778	89.646	162.0456
103.747162	89.635	162.0682
104.498962	89.621	161.9504
105.256203	89.585	161.8928
106.018929	89.560	161.9528
106.787186	89.548	161.9464
107.561012	89.524	161.8978
108.340446	89.500	161.9145
109.125526	89.484	161.9014
109.916290	89.460	161.8372
110.712791	89.431	161.8393
111.515060	89.413	161.8478
112.323143	89.392	161.7903
113.137085	89.363	161.7760
113.956924	89.342	161.7828
114.782700	89.321	161.7287
115.614464	89.291	161.6969
116.452255	89.264	161.6909
117.296112	89.236	161.6704
118.146095	89.207	161.7020
119.002228	89.191	161.7294
119.864563	89.173	161.6716
120.733154	89.144	161.6387
121.608040	89.119	161.6771
122.489258	89.101	161.6779
123.376869	89.074	161.6641
124.270905	89.044	161.7155
125.171425	89.021	161.7679
126.078468	88.997	161.7913
126.992081	88.974	161.8206
127.912323	88.956	161.8097
128.839233	88.931	161.7198
129.772842	88.894	161.6787
130.713242	88.866	161.7103
131.660431	88.847	161.7137
132.614502	88.831	161.6866
133.575485	88.806	161.6238
134.543427	88.777	161.6635
135.518387	88.761	161.6969
136.500412	88.732	161.6807
137.489548	88.707	161.7628
138.485855	88.689	161.7547
139.489380	88.655	161.7677
140.500168	88.633	161.8293
141.518295	88.608	161.8168
142.543793	88.581	161.8732
143.576721	88.560	161.8819
144.617142	88.531	161.9690
145.665100	88.520	161.9868
146.720642	88.479	161.9880
147.783844	88.457	162.0714
148.854752	88.399	162.0682
149.933411	88.385	162.4912
151.019897	88.410	162.2559
152.114243	88.343	162.1400
153.216522	88.325	162.2194
154.326797	88.291	162.1493
155.445114	88.264	162.1811
156.571533	88.224	162.1992
157.706116	88.202	162.3735
158.848923	88.187	162.3423
160.000000	88.147	162.3604
161.159424	88.115	162.4510
162.327255	88.092	162.5332
163.503540	88.065	162.5456
164.688354	88.036	162.6587
165.881760	88.015	162.6888
167.083801	87.982	162.7602
168.294571	87.959	162.8273
169.514099	87.926	162.8089
170.742462	87.890	162.9128
171.979736	87.874	162.9888
173.225967	87.853	162.9998
174.481232	87.817	163.0533
175.745605	87.792	163.2108
177.019119	87.763	163.3091
178.301880	87.732	163.4178
179.593933	87.710	163.5538
180.895340	87.695	163.4923
182.206177	87.660	163.4256
183.526520	87.606	163.5386
184.856430	87.604	163.7458
186.195984	87.570	163.8450
187.545227	87.582	163.9598
188.904266	87.528	163.8702
190.273132	87.504	164.0952
191.651932	87.477	164.1181
193.040726	87.457	164.2639
194.439575	87.436	164.2766
195.848572	87.404	164.4198
197.267761	87.383	164.5154
198.697250	87.355	164.6182
200.137085	87.329	164.7350
201.587372	87.303	164.8045
203.048157	87.277	164.9350
204.519531	87.255	165.0677
206.001556	87.235	165.1283
207.494324	87.207	165.3123
208.997925	87.188	165.3867
210.512405	87.158	165.5351
212.037857	87.134	165.6960
213.574371	87.110	165.8257
215.122025	87.082	165.9460
216.680893	87.061	166.0987
218.251053	87.030	166.1945
219.832581	87.004	166.2937
221.425583	86.970	166.5119
223.030121	86.944	166.5904
224.646286	86.908	166.7799
226.274170	86.885	166.9704
227.913849	86.846	167.1120
229.565399	86.823	167.3072
231.228928	86.788	167.6532
232.904510	86.766	167.7061
234.592224	86.735	168.1147
236.292191	86.709	168.3161
238.004456	86.695	168.6011
239.729126	86.669	168.9037
241.466309	86.664	169.2230
243.216080	86.672	169.6934
244.978516	86.678	169.7007
246.753738	86.680	170.2001
248.541809	86.688	170.3314
250.342850	86.710	170.6782
252.156937	86.739	170.6245
253.984161	86.770	170.5135
255.824646	86.766	170.6102
257.678467	86.771	170.6189
259.545685	86.756	170.5534
261.426483	86.762	170.6537
263.320862	86.706	170.7797
265.229004	86.715	170.5758
267.150970	86.701	170.7887
269.086853	86.664	170.7638
271.036774	86.646	170.8797
273.000824	86.622	170.8671
274.979095	86.602	171.0646
276.971710	86.578	171.1519
278.978760	86.555	171.2404
281.000336	86.525	171.3512
283.036591	86.518	171.5165
285.087585	86.482	171.6461
287.153442	86.466	171.8000
289.234283	86.444	171.9127
291.330200	86.424	172.0863
293.441284	86.397	172.2885
295.567688	86.376	172.3398
297.709503	86.352	172.4835
299.866821	86.332	172.6375
302.039795	86.318	172.7971
304.228485	86.291	172.9938
306.433044	86.265	173.1643
308.653595	86.243	173.2944
310.890228	86.238	173.4245
313.143066	86.214	173.6452
315.412231	86.192	173.8461
317.697845	86.163	173.9886
320.000000	86.143	174.2386
322.318848	86.128	174.2928
324.654510	86.103	174.5491
327.007080	86.093	174.7101
329.376709	86.065	174.9373
331.763519	86.052	175.1326
334.167603	86.036	175.2950
336.589142	86.023	175.4556
339.028198	86.000	175.6610
341.484924	85.981	175.8654
343.959473	85.963	176.0617
346.451935	85.946	176.3121
348.962463	85.951	176.6568
351.491211	85.927	176.7128
354.038239	85.901	176.8793
356.603760	85.889	177.0547
359.187866	85.870	177.2413
361.790680	85.850	177.4714
364.412354	85.836	177.7221
367.053040	85.824	177.9076
369.712860	85.808	178.1385
372.391968	85.793	178.3442
375.090454	85.784	178.5400
377.808533	85.774	178.7777
380.546265	85.758	178.9599
383.303864	85.741	179.2094
386.081451	85.727	179.4123
388.879150	85.703	179.6105
391.697144	85.684	179.8561
394.535522	85.669	-179.9227
397.394501	85.655	-179.6925
400.274170	85.637	-179.4704
403.174744	85.626	-179.2249
406.096313	85.616	-178.9899
409.039062	85.599	-178.7612
412.003113	85.584	-178.5211
414.988647	85.569	-178.2718
417.995850	85.558	-177.9631
421.024811	85.539	-177.7862
424.075714	85.523	-177.5689
427.148743	85.508	-177.3820
430.244049	85.504	-177.1874
433.361786	85.497	-176.9190
436.502106	85.490	-176.6501
439.665161	85.468	-176.3492
442.851166	85.457	-176.1236
446.060242	85.442	-175.9047
449.292572	85.459	-175.4857
452.548340	85.428	-175.3679
455.827698	85.401	-175.1983
459.130798	85.397	-174.9474
462.457855	85.380	-174.6224
465.809021	85.363	-174.4063
469.184448	85.358	-174.2132
472.584381	85.341	-173.8852
476.008911	85.330	-173.6274
479.458252	85.323	-173.3505
482.932617	85.308	-173.0736
486.432159	85.300	-172.8189
489.957031	85.286	-172.5563
493.507477	85.278	-172.2205
497.083618	85.269	-171.9692
500.685699	85.265	-171.6626
504.313873	85.252	-171.3878
507.968323	85.249	-171.1241
511.649292	85.233	-170.7774
515.356934	85.224	-170.5021
519.091370	85.212	-170.1667
522.852966	85.213	-169.8954
526.641724	85.201	-169.5941
530.458008	85.193	-169.2763
534.301941	85.189	-168.9525
538.173706	85.189	-168.5970
542.073547	85.184	-168.3064
546.001648	85.172	-167.9598
549.958191	85.168	-167.5251
553.943420	85.169	-167.3443
557.957520	85.173	-167.0075
562.000671	85.165	-166.6815
566.073181	85.158	-166.3801
570.175171	85.167	-166.0275
574.306885	85.164	-165.7228
578.468567	85.162	-165.3937
582.660400	85.165	-165.0584
586.882568	85.161	-164.6962
591.135376	85.159	-164.4201
595.419006	85.155	-164.0749
599.733643	85.160	-163.7386
604.079590	85.154	-163.4221
608.456970	85.154	-163.0772
612.866089	85.149	-162.7593
617.307190	85.148	-162.4270
621.780457	85.151	-162.0755
626.286133	85.146	-161.6942
630.824463	85.150	-161.3729
635.395691	85.143	-161.0093
640.000000	85.146	-160.6659
644.637695	85.140	-160.3050
649.309021	85.168	-160.0908
654.014160	85.145	-159.4912
658.753418	85.142	-159.1731
663.527039	85.149	-158.7731
668.335205	85.147	-158.4257
673.178284	85.147	-157.9746
678.056396	85.156	-157.6457
682.969849	85.155	-157.1630
687.918945	85.159	-156.8508
692.903870	85.155	-156.4117
697.924927	85.164	-156.0662
702.982422	85.166	-155.5836
708.076477	85.171	-155.2093
713.207520	85.175	-154.7687
718.375732	85.186	-154.4017
723.581360	85.192	-153.9985
728.824707	85.199	-153.4876
734.106079	85.208	-153.1328
739.425720	85.211	-152.6974
744.783936	85.221	-152.2313
750.180908	85.248	-152.0081
755.617065	85.246	-151.3801
761.092529	85.262	-150.9273
766.607727	85.278	-150.5170
772.162903	85.282	-150.0867
777.758301	85.284	-149.5824
783.394287	85.309	-149.0493
789.071045	85.335	-148.6033
794.789001	85.360	-148.1811
800.548340	85.380	-147.7472
806.349487	85.394	-147.3532
812.192627	85.416	-146.9010
818.078125	85.447	-146.4133
824.006226	85.467	-145.9545
829.977295	85.497	-145.5294
835.991699	85.531	-145.0326
842.049622	85.557	-144.5968
848.151428	85.587	-144.0345
854.297485	85.612	-143.6190
860.488098	85.633	-143.1745
866.723572	85.667	-142.7582
873.004211	85.710	-142.3490
879.330322	85.746	-141.8545
885.702332	85.782	-141.3766
892.120483	85.806	-140.9230
898.585144	85.847	-140.4594
905.096680	85.886	-140.0625
911.655396	85.927	-139.6754
918.261597	85.972	-139.1023
924.915710	86.003	-138.7187
931.618042	86.059	-138.3406
938.368896	86.101	-137.8505
945.168762	86.146	-137.4836
952.017822	86.194	-137.0989
958.916504	86.250	-136.6733
965.865234	86.298	-136.3076
972.864319	86.345	-135.8834
979.914062	86.405	-135.5044
987.014954	86.453	-135.1541
994.167236	86.515	-134.7679
1001.371399	86.570	-134.4216
1008.627747	86.630	-134.0150
1015.936646	86.687	-133.7514
1023.298584	86.742	-133.3995
1030.713867	86.798	-133.0782
1038.182739	86.859	-132.7450
1045.705933	86.917	-132.4450
1053.283447	86.979	-132.1682
1060.916016	87.036	-131.8433
1068.603882	87.093	-131.5492
1076.347412	87.158	-131.2573
1084.147095	87.211	-131.0095
1092.003296	87.260	-130.7044
1099.916382	87.306	-130.4756
1107.886841	87.367	-130.2353
1115.915039	87.415	-129.9708
1124.001343	87.458	-129.7138
1132.146362	87.515	-129.4689
1140.350342	87.564	-129.2685
1148.613770	87.607	-128.8829
1156.937134	87.664	-128.7977
1165.320801	87.711	-128.5643
1173.765137	87.753	-128.3815
1182.270752	87.807	-128.1297
1190.838013	87.855	-127.9216
1199.467285	87.905	-127.7467
1208.159180	87.952	-127.5440
1216.913940	88.016	-127.3264
1225.732178	88.079	-127.0999
1234.614380	88.144	-126.8920
1243.560913	88.213	-126.7345
1252.572266	88.279	-126.4783
1261.648926	88.345	-126.2844
1270.791382	88.410	-126.0913
1280.000000	88.472	-125.8810
1289.275391	88.538	-125.6896
1298.618042	88.608	-125.5040
1308.028320	88.672	-125.2883
1317.506836	88.742	-125.0871
1327.054077	88.805	-124.8805
1336.670410	88.865	-124.7068
1346.356567	88.933	-124.5024
1356.112793	88.998	-124.3026
1365.939697	89.113	-124.0962
1375.837891	89.175	-123.9221
1385.807739	89.246	-123.7384
1395.849854	89.314	-123.5238
1405.964844	89.387	-123.3044
1416.152954	89.453	-123.1428
1426.415039	89.521	-122.9341
1436.751465	89.591	-122.7305
1447.162720	89.662	-122.5378
1457.649414	89.731	-122.3669
1468.212158	89.800	-122.1604
1478.851440	89.867	-121.9652
1489.567871	89.936	-121.7549
1500.361816	90.003	-121.5473
1511.234131	90.072	-121.3270
1522.185059	90.137	-121.1476
1533.215454	90.202	-120.9064
1544.325806	90.253	-120.6864
1555.516602	90.316	-120.4804
1566.788574	90.371	-120.2757
1578.142090	90.426	-120.0501
1589.578003	90.485	-119.8252
1601.096680	90.545	-119.6151
1612.698975	90.605	-119.3647
1624.385254	90.661	-119.1433
1636.156250	90.723	-118.8957
1648.012451	90.785	-118.6282
1659.954590	90.844	-118.3928
1671.983398	90.909	-118.1585
1684.099243	90.971	-117.8971
1696.302856	91.035	-117.6608
1708.594971	91.101	-117.4097
1720.976196	91.170	-117.1593
1733.447144	91.235	-116.9122
1746.008423	91.306	-116.6627
1758.660645	91.378	-116.3700
1771.404663	91.449	-116.1371
1784.240967	91.522	-115.8776
1797.170288	91.601	-115.6187
1810.193359	91.677	-115.3570
1823.310791	91.756	-115.1129
1836.523193	91.837	-114.8565
1849.831421	91.922	-114.6201
1863.236084	92.000	-114.3607
1876.737793	92.081	-114.1254
1890.337524	92.172	-113.8626
1904.035645	92.258	-113.6462
1917.833008	92.350	-113.3974
1931.730469	92.438	-113.1913
1945.728638	92.529	-112.9611
1959.828125	92.622	-112.7476
1974.029907	92.715	-112.5359
1988.334473	92.816	-112.3465
2002.742798	92.917	-112.1390
2017.255493	93.020	-111.9833
2031.873291	93.117	-111.8000
2046.597168	93.218	-111.6414
2061.427734	93.329	-111.5073
2076.365479	93.435	-111.3509
2091.411865	93.547	-111.2275
2106.566895	93.657	-111.1107
2121.832031	93.770	-111.0132
2137.207764	93.886	-110.9583
2152.694824	94.001	-110.8763
2168.294189	94.120	-110.8346
2184.006592	94.241	-110.8090
2199.832764	94.361	-110.8123
2215.773682	94.482	-110.8285
2231.830078	94.607	-110.8802
2248.002686	94.727	-110.9167
2264.292725	94.857	-111.0126
2280.700684	94.987	-111.1289
2297.227539	95.112	-111.2677
2313.874268	95.241	-111.4297
2330.641602	95.370	-111.6307
2347.530273	95.502	-111.8620
2364.541504	95.630	-112.1198
2381.676025	95.759	-112.4211
2398.934570	95.888	-112.7335
2416.318359	96.019	-113.1174
2433.827881	96.144	-113.4904
2451.464355	96.270	-113.9369
2469.228760	96.394	-114.3884
2487.121826	96.515	-114.9238
2505.144531	96.633	-115.4587
2523.297852	96.751	-116.0302
2541.582764	96.863	-116.6613
2560.000000	96.971	-117.3191
2578.550781	97.079	-118.0151
2597.236084	97.176	-118.7562
2616.056641	97.270	-119.5038
2635.013672	97.357	-120.3093
2654.108154	97.440	-121.1405
2673.340820	97.510	-121.9899
2692.713135	97.578	-122.8808
2712.225586	97.635	-123.7843
2731.879395	97.686	-124.7151
2751.675781	97.727	-125.6521
2771.615479	97.759	-126.5929
2791.699707	97.786	-127.5559
2811.929688	97.797	-128.5013
2832.305908	97.802	-129.4661
2852.830078	97.797	-130.4032
2873.502930	97.783	-131.3279
2894.325439	97.761	-132.2417
2915.298828	97.729	-133.1330
2936.424316	97.688	-133.9968
2957.702881	97.641	-134.8399
2979.135742	97.583	-135.6264
3000.723633	97.519	-136.3810
3022.468262	97.453	-137.1306
3044.370117	97.376	-137.8231
3066.430908	97.291	-138.4520
3088.651611	97.204	-139.0604
3111.033203	97.111	-139.5986
3133.577148	97.013	-140.0909
3156.284180	96.913	-140.5459
3179.156006	96.811	-140.9428
3202.193359	96.706	-141.2873
3225.397949	96.601	-141.5944
3248.770508	96.494	-141.8081
3272.312500	96.383	-142.0193
3296.024902	96.275	-142.1704
3319.909180	96.168	-142.2745
3343.966797	96.063	-142.3144
3368.198486	95.957	-142.3145
3392.605713	95.852	-142.2771
3417.189941	95.754	-142.1858
3441.952393	95.654	-142.0744
3466.894287	95.559	-141.9185
3492.016846	95.465	-141.7193
3517.321289	95.378	-141.4939
3542.809326	95.290	-141.2139
3568.481934	95.205	-140.9713
3594.340576	95.120	-140.6289
3620.386719	95.042	-140.2642
3646.621582	94.966	-139.9032
3673.046387	94.890	-139.5056
3699.662842	94.820	-139.0565
3726.472168	94.752	-138.6064
3753.475586	94.687	-138.1045
3780.675049	94.630	-137.6106
3808.071289	94.576	-137.0781
3835.666016	94.526	-136.5126
3863.460938	94.478	-135.9390
3891.457275	94.430	-135.3407
3919.656250	94.395	-134.7482
3948.059814	94.362	-134.1151
3976.668945	94.327	-133.4682
4005.485596	94.300	-132.8160
4034.510986	94.275	-132.1695
4063.746582	94.258	-131.4632
4093.194336	94.244	-130.7593
4122.855469	94.233	-130.0362
4152.730957	94.223	-129.2957
4182.823730	94.229	-128.5798
4213.133789	94.238	-127.8192
4243.664062	94.250	-127.0946
4274.415527	94.266	-126.2724
4305.389648	94.290	-125.5098
4336.588379	94.327	-124.7333
4368.013184	94.365	-123.9251
4399.665527	94.419	-123.1677
4431.547363	94.471	-122.3748
4463.660156	94.538	-121.6225
4496.005371	94.609	-120.8970
4528.585449	94.685	-120.1507
4561.401367	94.773	-119.4840
4594.455078	94.865	-118.8242
4627.748535	94.965	-118.1888
4661.283203	95.069	-117.5794
4695.060547	95.179	-117.0144
4729.083008	95.298	-116.4672
4763.352051	95.417	-115.9883
4797.869141	95.552	-115.5290
4832.636719	95.689	-115.1666
4867.655762	95.824	-114.7871
4902.928711	95.967	-114.4626
4938.457520	96.108	-114.2695
4974.243652	96.263	-114.0816
5010.289062	96.412	-113.9806
5046.595703	96.563	-113.9801
5083.165527	96.721	-113.9962
5120.000000	96.879	-114.1116
5157.101562	97.040	-114.3131
5194.472168	97.197	-114.6051
5232.113281	97.360	-114.9978
5270.027344	97.512	-115.4472
5308.216309	97.666	-116.0132
5346.681641	97.815	-116.6661
5385.426270	97.949	-117.4180
5424.451172	98.080	-118.2473
5463.758789	98.197	-119.1565
5503.351562	98.295	-120.1755
5543.230957	98.385	-121.2562
5583.399414	98.467	-122.3918
5623.859375	98.526	-123.6110
5664.611816	98.581	-124.8633
5705.660156	98.616	-126.1857
5747.005859	98.647	-127.5875
5788.650879	98.655	-129.0617
5830.597656	98.649	-130.6340
5872.848633	98.614	-132.3099
5915.405762	98.548	-134.1034
5958.271484	98.431	-135.9494
6001.447266	98.272	-137.7339
6044.936523	98.051	-139.3998
6088.740234	97.784	-140.8396
6132.861816	97.482	-141.9485
6177.303223	97.161	-142.7213
6222.066406	96.829	-143.1038
6267.154297	96.510	-143.1697
6312.568359	96.195	-142.9133
6358.312012	95.904	-142.4444
6404.386719	95.628	-141.7513
6450.795898	95.380	-140.8774
6497.541016	95.158	-139.8514
6544.625000	94.965	-138.7862
6592.049805	94.794	-137.6135
6639.818359	94.659	-136.3527
6687.933594	94.537	-135.0377
6736.396973	94.443	-133.6907
6785.211426	94.369	-132.3615
6834.379883	94.324	-130.9793
6883.904785	94.325	-129.5762
6933.788574	94.364	-128.2028
6984.033691	94.435	-126.8305
7034.642578	94.536	-125.5259
7085.618652	94.659	-124.1638
7136.963867	94.814	-123.0085
7188.681152	95.001	-121.8719
7240.773438	95.216	-120.8750
7293.243164	95.460	-120.0203
7346.092773	95.742	-119.3759
7399.325684	96.058	-118.9059
7452.944336	96.403	-118.7290
7506.951172	96.777	-118.9071
7561.350098	97.180	-119.4646
7616.142578	97.609	-120.4871
7671.332031	98.048	-122.0914
7726.921875	98.594	-124.4149
7782.914551	98.961	-127.4805
7839.312500	99.267	-131.3510
7896.119629	99.470	-135.9959
7953.337891	99.532	-141.2912
8010.971191	99.420	-146.8749
8069.021973	99.118	-152.4555
8127.493164	98.643	-157.6599
8186.388672	98.025	-162.1633
8245.710938	97.295	-165.8781
8305.461914	96.513	-168.6889
8365.647461	95.681	-170.6754
8426.267578	94.850	-171.9127
8487.328125	94.017	-172.3988
8548.831055	93.201	-172.2540
8610.779297	92.414	-171.5225
8673.176758	91.626	-170.0088
8736.026367	90.896	-167.8813
8799.331055	90.262	-164.9702
8863.094727	89.818	-161.5468
8927.320312	89.573	-158.7175
8992.010742	89.372	-157.0706
9057.170898	89.108	-156.0644
9122.802734	88.740	-155.1105
9188.910156	88.354	-153.7627
9255.497070	87.966	-152.2319
9322.566406	87.585	-150.4328
9390.121094	87.233	-148.5336
9458.166016	86.903	-146.4587
9526.704102	86.591	-144.2676
9595.738281	86.346	-141.9246
9665.273438	86.103	-139.9002
9735.311523	85.900	-137.5614
9805.857422	85.721	-135.2914
9876.915039	85.571	-133.3517
9948.487305	85.450	-131.0433
10020.578125	85.391	-129.1234
10093.191406	85.325	-127.3831
10166.331055	85.274	-125.7016
10240.000000	85.268	-124.3252
10314.203125	85.271	-123.1424
10388.944336	85.271	-122.3354
10464.226562	85.278	-121.9844
10540.054688	85.239	-121.6276
10616.432617	85.192	-121.7866
10693.363281	85.093	-122.3068
10770.852539	84.921	-122.9011
10848.902344	84.690	-123.5890
10927.517578	84.387	-124.3283
11006.703125	84.045	-124.7537
11086.461914	83.622	-125.0258
11166.798828	83.148	-124.8040
11247.718750	82.678	-124.4236
11329.223633	82.162	-123.1218
11411.320312	81.638	-122.0019
11494.011719	81.125	-120.1240
11577.301758	80.657	-117.9164
11661.195312	80.236	-115.2770
11745.697266	79.844	-112.8506
11830.811523	79.478	-110.1281
11916.542969	79.179	-107.2336
12002.894531	78.850	-104.5784
12089.873047	78.563	-101.8577
12177.480469	78.225	-98.8699
12265.723633	78.049	-95.7444
12354.606445	77.842	-92.6095
12444.132812	77.675	-89.4541
12534.308594	77.549	-85.9957
12625.136719	77.465	-82.5912
12716.624023	77.425	-79.6275
12808.773438	77.312	-76.9104
12901.591797	77.235	-74.1805
12995.082031	77.144	-71.1312
13089.250000	77.156	-67.6546
13184.099609	77.125	-65.1354
13279.636719	77.083	-62.4724
13375.867188	77.111	-59.3637
13472.793945	77.142	-56.1799
13570.422852	77.162	-53.2342
13668.759766	77.173	-50.2484
13767.809570	77.300	-47.3324
13867.577148	77.430	-44.6166
13968.067383	77.553	-41.5358
14069.285156	77.743	-38.5875
14171.237305	77.870	-35.6103
14273.927734	78.192	-32.8304
14377.362305	78.455	-29.8183
14481.546875	78.761	-27.0913
14586.486328	79.125	-24.5543
14692.185547	79.566	-22.0765
14798.651367	80.041	-19.8718
14905.888672	80.616	-17.8890
15013.902344	81.282	-16.4913
15122.700195	82.009	-15.7385
15232.285156	82.832	-16.0938
15342.664062	83.714	-17.9719
15453.843750	84.574	-21.5042
15565.829102	85.318	-27.1917
15678.625000	85.783	-34.8836
15792.239258	85.820	-43.6145
15906.675781	85.345	-51.9138
16021.942383	84.564	-59.0618
16138.043945	83.597	-63.4482
16254.986328	82.497	-66.1767
16372.777344	81.509	-66.9428
16491.421875	80.564	-66.7645
16610.923828	79.693	-65.4879
16731.294922	79.020	-63.7806
16852.535156	78.398	-61.1933
16974.656250	77.890	-58.4387
17097.662109	77.439	-55.7988
17221.558594	77.211	-52.6777
17346.353516	76.920	-49.5956
17472.052734	76.810	-46.9841
17598.662109	76.645	-45.4011
17726.189453	76.503	-43.8597
17854.640625	76.316	-41.4973
17984.021484	76.074	-40.1085
18114.341797	75.875	-38.0226
18245.605469	75.726	-35.4983
18377.820312	75.621	-33.0566
18510.994141	75.451	-30.4816
18645.132812	75.505	-26.9780
18780.242188	75.649	-23.6934
18916.332031	75.984	-19.8292
19053.408203	76.573	-17.9346
19191.476562	77.240	-17.6169
19330.546875	77.691	-18.8687
19470.623047	78.157	-19.4786
19611.714844	78.687	-21.6690
19753.830078	79.102	-23.1765
19896.974609	79.517	-26.5983
