* Measurement data measured by REW V5.20.4
* Source: Microphone (2- KM-HIFI-384KHZ), MICROPHONE (Master Volume), L, volume: 0.250
* Format: 256k Log Swept Sine, 1 sweep at -6.0 dBFS with no timing reference
* Dated: 25 Mar, 2022 6:03:46 PM
* REW Settings:
*  C-weighting compensation: Off
*  Target level: 75.0 dB
* Note: 
* Measurement: B2R L
* Smoothing: None
* Frequency Step: 1/48 octave
* Start Frequency: 20.000 Hz
*
* Freq(Hz)	SPL(dB)	Phase(degrees)
20.000000	94.820	-176.1524
20.299999	94.819	-176.4069
20.600000	94.818	-176.6485
20.900000	94.816	-176.8680
21.200001	94.816	-177.0783
21.400000	94.817	-177.2143
21.799999	94.822	-177.4780
22.000000	94.825	-177.6109
22.400000	94.830	-177.8934
22.700001	94.832	-178.1025
23.000000	94.832	-178.3024
23.299999	94.831	-178.4941
23.600000	94.830	-178.6682
24.000000	94.830	-178.8752
24.299999	94.833	-179.0243
24.700001	94.839	-179.2246
25.000000	94.845	-179.3830
25.400000	94.851	-179.6150
25.799999	94.855	-179.8535
26.200001	94.855	179.9094
26.500000	94.853	179.7395
26.900000	94.847	179.5369
27.200001	94.841	179.3964
27.600000	94.835	179.2158
28.000000	94.831	179.0377
28.500000	94.827	178.7973
29.000000	94.822	178.5457
29.500000	94.814	178.2901
30.000000	94.805	178.0526
30.400000	94.800	177.8689
30.700001	94.796	177.7375
31.100000	94.791	177.5690
31.500000	94.785	177.4099
32.000000	94.780	177.2349
32.500000	94.778	177.0678
33.000000	94.779	176.8803
33.500000	94.775	176.6551
34.000000	94.765	176.4325
34.500000	94.755	176.2514
35.000000	94.749	176.1133
35.500000	94.750	175.9613
36.000000	94.750	175.7672
36.500000	94.743	175.5579
37.000000	94.731	175.3900
37.500000	94.724	175.2606
38.200001	94.720	175.0634
38.700001	94.714	174.8825
39.500000	94.696	174.6189
40.000000	94.688	174.4821
40.599998	94.682	174.2921
41.200001	94.672	174.0788
41.799999	94.656	173.9092
42.500000	94.646	173.7689
43.099998	94.646	173.6039
43.700001	94.638	173.3920
44.400002	94.617	173.2067
45.000000	94.605	173.1155
45.500000	94.601	173.0087
46.200001	94.588	172.7914
46.799999	94.567	172.6348
47.500000	94.548	172.5096
48.200001	94.536	172.3182
48.700001	94.520	172.1517
49.400002	94.494	171.9919
50.000000	94.482	171.8882
50.799999	94.470	171.6653
51.500000	94.452	171.5048
52.200001	94.447	171.4294
53.000000	94.456	171.2280
53.799999	94.443	170.9639
54.500000	94.422	170.8604
55.200001	94.413	170.7864
56.000000	94.401	170.6464
57.000000	94.377	170.4842
58.000000	94.349	170.2983
59.000000	94.316	170.1405
60.000000	94.288	169.9600
60.799999	94.270	169.7771
61.500000	94.254	169.6075
62.200001	94.235	169.4440
63.000000	94.212	169.3083
64.000000	94.191	169.2049
65.000000	94.182	169.0966
66.000000	94.170	168.9142
67.000000	94.143	168.7411
68.000000	94.118	168.6524
69.000000	94.102	168.4772
70.000000	94.069	168.2775
71.000000	94.040	168.1865
72.000000	94.025	168.0724
73.000000	94.007	167.8989
74.000000	93.984	167.7671
75.000000	93.963	167.6385
76.199997	93.932	167.5085
77.500000	93.904	167.3943
78.800003	93.876	167.2369
80.000000	93.847	167.1056
81.199997	93.826	166.9856
82.500000	93.800	166.8263
83.800003	93.773	166.7067
85.000000	93.749	166.6033
86.199997	93.726	166.4752
87.500000	93.691	166.3309
88.500000	93.668	166.2719
90.000000	93.633	166.1241
91.199997	93.607	166.0347
92.500000	93.580	165.9034
93.800003	93.548	165.8046
95.000000	93.524	165.7327
96.199997	93.498	165.6357
97.500000	93.473	165.5739
98.800003	93.446	165.4890
100.000000	93.421	165.3933
101.500000	93.373	165.3259
103.000000	93.342	165.2356
104.400002	93.310	165.1756
106.000000	93.282	165.0190
107.500000	93.253	164.8859
109.000000	93.231	164.8029
110.599998	93.188	164.7696
112.000000	93.171	164.6987
113.800003	93.116	164.7000
115.000000	93.097	164.6156
117.199997	93.037	164.5237
118.000000	93.025	164.4597
120.599998	92.972	164.3996
122.000000	92.945	164.3319
124.099998	92.909	164.3121
125.000000	92.889	164.2718
126.500000	92.868	164.2473
128.000000	92.823	164.1493
131.500000	92.769	164.1667
132.000000	92.758	164.1098
134.000000	92.714	164.0995
136.000000	92.672	164.0492
138.000000	92.634	164.0800
140.000000	92.602	164.0491
143.000000	92.546	163.9851
145.000000	92.513	163.9882
147.500000	92.473	163.9819
150.000000	92.426	164.2342
152.500000	92.367	164.0160
155.000000	92.312	163.9901
157.500000	92.277	163.9338
160.000000	92.222	163.9856
162.500000	92.181	163.9935
165.000000	92.133	164.0220
167.500000	92.087	164.0240
170.000000	92.042	164.0674
172.500000	92.002	164.1022
175.000000	91.964	164.1405
177.500000	91.930	164.1495
180.000000	91.881	164.2236
182.500000	91.850	164.2255
185.000000	91.796	164.3751
187.500000	91.769	164.3674
190.000000	91.745	164.3381
192.500000	91.714	164.4661
195.000000	91.682	164.5684
197.500000	91.648	164.6064
200.000000	91.614	164.6562
203.000000	91.586	164.7462
206.000000	91.550	164.7701
209.000000	91.514	164.9681
212.000000	91.485	165.0195
214.000000	91.460	165.0443
218.000000	91.411	165.1459
220.000000	91.383	165.2597
224.000000	91.340	165.3492
227.000000	91.303	165.4619
230.000000	91.264	165.5751
233.000000	91.227	165.6774
236.000000	91.193	165.7456
240.000000	91.148	165.9006
243.000000	91.107	166.0215
247.000000	91.084	166.1477
250.000000	91.036	166.1826
254.000000	91.018	166.4182
258.000000	90.986	166.5641
262.000000	90.948	166.6820
265.000000	90.928	166.8265
269.000000	90.880	167.0328
272.000000	90.857	167.1405
276.000000	90.824	167.2882
280.000000	90.783	167.4343
285.000000	90.739	167.6490
290.000000	90.696	167.8312
295.000000	90.655	168.0332
300.000000	90.620	168.2562
304.000000	90.584	168.4273
307.000000	90.557	168.5667
311.000000	90.520	168.6789
315.000000	90.494	168.8790
320.000000	90.453	169.0794
325.000000	90.413	169.2946
330.000000	90.373	169.5314
335.000000	90.337	169.7320
340.000000	90.306	169.9662
345.000000	90.272	170.1946
350.000000	90.223	170.2821
355.000000	90.208	170.5964
360.000000	90.175	170.8401
365.000000	90.147	171.0641
370.000000	90.117	171.2757
375.000000	90.087	171.5168
382.000000	90.045	171.8486
387.000000	90.013	172.0900
395.000000	89.972	172.4252
400.000000	89.946	172.7286
406.000000	89.917	173.0066
412.000000	89.892	173.3036
418.000000	89.868	173.5780
425.000000	89.834	173.9194
431.000000	89.815	174.1696
437.000000	89.789	174.3983
444.000000	89.759	174.6608
450.000000	89.754	174.9609
455.000000	89.708	175.1136
462.000000	89.676	175.4127
468.000000	89.646	175.6762
475.000000	89.614	175.9790
482.000000	89.585	176.2911
487.000000	89.566	176.5233
494.000000	89.537	176.8143
500.000000	89.517	177.1141
508.000000	89.487	177.4391
515.000000	89.460	177.7787
522.000000	89.435	178.0838
530.000000	89.405	178.4487
538.000000	89.377	178.8246
545.000000	89.354	179.1602
552.000000	89.333	179.4985
560.000000	89.302	179.8773
570.000000	89.271	-179.6402
580.000000	89.242	-179.1316
590.000000	89.215	-178.6291
600.000000	89.187	-178.1014
608.000000	89.163	-177.7149
615.000000	89.145	-177.3450
622.000000	89.123	-176.9677
630.000000	89.103	-176.5599
640.000000	89.076	-176.0186
650.000000	89.034	-175.5158
660.000000	89.029	-174.9158
670.000000	89.010	-174.3739
680.000000	88.995	-173.8484
690.000000	88.974	-173.2699
700.000000	88.956	-172.7142
710.000000	88.941	-172.1422
720.000000	88.930	-171.5841
730.000000	88.918	-170.9912
740.000000	88.908	-170.4206
750.000000	88.923	-169.8208
762.000000	88.903	-169.1414
775.000000	88.895	-168.4127
788.000000	88.897	-167.6456
800.000000	88.902	-166.9514
812.000000	88.907	-166.2716
825.000000	88.924	-165.5444
838.000000	88.940	-164.7997
850.000000	88.969	-163.9963
862.000000	88.987	-163.5057
875.000000	89.017	-162.8090
885.000000	89.044	-162.3101
900.000000	89.087	-161.5515
912.000000	89.126	-160.9932
925.000000	89.168	-160.3818
938.000000	89.214	-159.8139
950.000000	89.271	-159.1904
962.000000	89.316	-158.8178
975.000000	89.370	-158.3092
988.000000	89.438	-157.8622
1000.000000	89.491	-157.3651
1015.000000	89.564	-156.9579
1030.000000	89.637	-156.5179
1044.000000	89.705	-156.1232
1060.000000	89.784	-155.7321
1075.000000	89.856	-155.3955
1090.000000	89.912	-155.0747
1106.000000	89.970	-154.7566
1120.000000	90.018	-154.5272
1138.000000	90.080	-154.2344
1150.000000	90.131	-153.9811
1172.000000	90.190	-153.7595
1180.000000	90.214	-153.6475
1206.000000	90.286	-153.3500
1220.000000	90.348	-153.2158
1241.000000	90.456	-152.9914
1250.000000	90.484	-152.8484
1265.000000	90.573	-152.7837
1280.000000	90.644	-152.6707
1315.000000	90.799	-152.4597
1320.000000	90.819	-152.4509
1340.000000	90.898	-152.3796
1360.000000	91.022	-152.3276
1380.000000	91.099	-152.2321
1400.000000	91.168	-152.1718
1430.000000	91.267	-152.0926
1450.000000	91.338	-152.0120
1475.000000	91.402	-151.9093
1500.000000	91.467	-151.7688
1525.000000	91.526	-151.5953
1550.000000	91.568	-151.4719
1575.000000	91.584	-151.2449
1600.000000	91.615	-150.9985
1625.000000	91.641	-150.7229
1650.000000	91.666	-150.5349
1675.000000	91.696	-150.1958
1700.000000	91.725	-149.8878
1725.000000	91.753	-149.5670
1750.000000	91.778	-149.2607
1775.000000	91.818	-148.9037
1800.000000	91.852	-148.5318
1825.000000	91.891	-148.1715
1850.000000	91.923	-147.8196
1875.000000	91.971	-147.4485
1900.000000	92.007	-147.0332
1925.000000	92.055	-146.6645
1950.000000	92.101	-146.3368
1975.000000	92.142	-145.9206
2000.000000	92.179	-145.5734
2030.000000	92.247	-145.1143
2060.000000	92.307	-144.6920
2090.000000	92.374	-144.2659
2120.000000	92.439	-143.8554
2140.000000	92.489	-143.5813
2180.000000	92.583	-143.0704
2200.000000	92.629	-142.7961
2240.000000	92.733	-142.3379
2270.000000	92.813	-141.9902
2300.000000	92.889	-141.6585
2330.000000	92.972	-141.3760
2360.000000	93.061	-141.1017
2400.000000	93.172	-140.7674
2430.000000	93.263	-140.5384
2470.000000	93.384	-140.3001
2500.000000	93.475	-140.1503
2540.000000	93.599	-139.9790
2580.000000	93.724	-139.8910
2620.000000	93.847	-139.8111
2650.000000	93.942	-139.8157
2690.000000	94.065	-139.8717
2720.000000	94.155	-139.9423
2760.000000	94.275	-140.1235
2800.000000	94.393	-140.3516
2850.000000	94.534	-140.7120
2900.000000	94.661	-141.2082
2950.000000	94.779	-141.7879
3000.000000	94.872	-142.4094
3040.000000	94.957	-143.0145
3070.000000	95.005	-143.4936
3110.000000	95.059	-144.1641
3150.000000	95.102	-144.8548
3200.000000	95.127	-145.7699
3250.000000	95.135	-146.7484
3300.000000	95.124	-147.6944
3350.000000	95.091	-148.6646
3400.000000	95.028	-149.5407
3450.000000	94.947	-150.4010
3500.000000	94.850	-151.2308
3550.000000	94.729	-151.9095
3600.000000	94.597	-152.5386
3650.000000	94.450	-153.0592
3700.000000	94.290	-153.4237
3750.000000	94.122	-153.7034
3820.000000	93.869	-153.8482
3870.000000	93.690	-153.7506
3950.000000	93.386	-153.3674
4000.000000	93.195	-152.9031
4060.000000	92.989	-152.3433
4120.000000	92.782	-151.5106
4180.000000	92.588	-150.4926
4250.000000	92.385	-149.0886
4310.000000	92.224	-147.8419
4370.000000	92.088	-146.4014
4440.000000	91.959	-144.6137
4500.000000	91.879	-143.0025
4550.000000	91.827	-141.6197
4620.000000	91.787	-139.6207
4680.000000	91.785	-137.8730
4750.000000	91.816	-135.9118
4820.000000	91.868	-133.9723
4870.000000	91.924	-132.6382
4940.000000	92.024	-130.8463
5000.000000	92.105	-129.3079
5080.000000	92.297	-127.4185
5150.000000	92.476	-125.7873
5220.000000	92.701	-124.2565
5300.000000	93.010	-122.5961
5380.000000	93.412	-121.3103
5450.000000	93.838	-120.6329
5520.000000	94.310	-120.6271
5600.000000	94.901	-121.9090
5700.000000	95.562	-125.9644
5800.000000	95.867	-132.5019
5900.000000	95.570	-139.6503
6000.000000	94.744	-144.6906
6080.000000	93.918	-146.6158
6150.000000	93.193	-146.7180
6220.000000	92.510	-145.6987
6300.000000	91.840	-143.4510
6400.000000	91.178	-139.6304
6500.000000	90.715	-135.1183
6600.000000	90.435	-130.4733
6700.000000	90.319	-125.7259
6800.000000	90.338	-121.1492
6900.000000	90.517	-116.7057
7000.000000	90.875	-112.7381
7100.000000	91.313	-108.8957
7200.000000	91.876	-105.7500
7300.000000	92.523	-103.1921
7400.000000	93.280	-101.3559
7500.000000	94.124	-100.5788
7620.000000	95.189	-101.2671
7750.000000	96.444	-104.3132
7880.000000	97.471	-110.3144
8000.000000	98.081	-118.9350
8120.000000	98.126	-129.0151
8250.000000	97.534	-139.2692
8380.000000	96.476	-146.9461
8500.000000	95.312	-151.4240
8620.000000	94.112	-153.5626
8750.000000	92.878	-153.3825
8850.000000	92.174	-152.0694
9000.000000	91.400	-151.1929
9120.000000	90.686	-151.2424
9250.000000	89.881	-150.7228
9380.000000	89.085	-149.7375
9500.000000	88.367	-148.4902
9620.000000	87.646	-147.1069
9750.000000	86.911	-145.2024
9880.000000	86.189	-143.0226
10000.000000	85.514	-140.9379
10150.000000	84.753	-137.4086
10300.000000	83.971	-133.8754
10440.000000	83.351	-130.1309
10600.000000	82.659	-125.3118
10750.000000	82.094	-120.6528
10900.000000	81.613	-116.0508
11060.000000	81.203	-110.8777
11200.000000	80.856	-106.2681
11380.000000	80.582	-100.6470
11500.000000	80.410	-96.9964
11720.000000	80.123	-91.2836
11800.000000	79.998	-88.6486
12060.000000	79.851	-81.3526
12200.000000	79.713	-77.4936
12410.000000	79.742	-72.9615
12500.000000	79.744	-70.6463
12650.000000	79.696	-67.4386
12800.000000	79.655	-63.9280
13150.000000	79.611	-55.5646
13200.000000	79.597	-54.3562
13400.000000	79.624	-49.2596
13600.000000	79.690	-43.8584
13800.000000	79.917	-38.3969
14000.000000	80.142	-33.3556
14300.000000	80.848	-25.2651
14500.000000	81.389	-19.8019
14750.000000	82.289	-13.2985
15000.000000	83.534	-8.2467
15250.000000	85.241	-4.4652
15500.000000	87.461	-5.8416
15750.000000	89.508	-16.3129
16000.000000	90.131	-33.9127
16250.000000	89.096	-48.5833
16500.000000	87.512	-55.4547
16750.000000	86.095	-56.9341
17000.000000	85.082	-55.0990
17250.000000	84.291	-52.0764
17500.000000	83.846	-48.4225
17750.000000	83.729	-45.2229
18000.000000	83.867	-42.1091
18250.000000	84.272	-41.3289
18500.000000	84.717	-43.0690
18750.000000	84.920	-46.2542
19000.000000	84.924	-48.9790
19250.000000	84.879	-52.3044
19500.000000	84.937	-55.3692
19750.000000	85.018	-59.4551
