* Measurement data measured by REW V5.20.4
* Source: Microphone (2- KM-HIFI-384KHZ), MICROPHONE (Master Volume), L, volume: 0.250
* Format: 256k Log Swept Sine, 1 sweep at -6.0 dBFS with no timing reference
* Dated: 25 Mar, 2022 5:04:53 PM
* REW Settings:
*  C-weighting compensation: Off
*  Target level: 75.0 dB
* Note: 
* Measurement: B2W L
* Smoothing: None
* Frequency Step: 1/48 octave
* Start Frequency: 20.000 Hz
*
* Freq(Hz)	SPL(dB)	Phase(degrees)
20.000000	92.427	-175.9024
20.299999	92.431	-176.1452
20.600000	92.434	-176.3937
20.900000	92.435	-176.6373
21.200001	92.434	-176.8806
21.400000	92.433	-177.0356
21.799999	92.431	-177.3185
22.000000	92.430	-177.4481
22.400000	92.429	-177.7021
22.700001	92.431	-177.8852
23.000000	92.433	-178.0722
23.299999	92.435	-178.2713
23.600000	92.435	-178.4700
24.000000	92.433	-178.7184
24.299999	92.433	-178.8877
24.700001	92.435	-179.0909
25.000000	92.441	-179.2420
25.400000	92.452	-179.4765
25.799999	92.463	-179.7552
26.200001	92.466	179.9337
26.500000	92.462	179.7055
26.900000	92.450	179.4489
27.200001	92.437	179.2958
27.600000	92.426	179.1291
28.000000	92.423	178.9734
28.500000	92.424	178.7371
29.000000	92.422	178.4591
29.500000	92.412	178.1736
30.000000	92.398	177.9248
30.400000	92.390	177.7462
30.700001	92.384	177.6242
31.100000	92.376	177.4722
31.500000	92.369	177.3310
32.000000	92.363	177.1732
32.500000	92.362	177.0101
33.000000	92.364	176.8162
33.500000	92.361	176.5827
34.000000	92.352	176.3483
34.500000	92.346	176.1373
35.000000	92.341	175.9511
35.500000	92.338	175.7635
36.000000	92.335	175.5766
36.500000	92.331	175.4023
37.000000	92.328	175.2415
37.500000	92.326	175.0655
38.200001	92.313	174.8188
38.700001	92.296	174.7026
39.500000	92.288	174.5875
40.000000	92.293	174.4158
40.599998	92.283	174.0809
41.200001	92.244	173.8250
41.799999	92.209	173.7859
42.500000	92.216	173.7622
43.099998	92.240	173.4550
43.700001	92.228	172.9635
44.400002	92.165	172.5909
45.000000	92.117	172.6381
45.500000	92.117	172.7637
46.200001	92.152	172.6764
46.799999	92.152	172.3539
47.500000	92.101	172.2558
48.200001	92.094	172.6010
48.700001	92.143	172.6918
49.400002	92.196	172.2115
50.000000	92.158	171.6827
50.799999	92.064	171.5643
51.500000	92.038	171.6781
52.200001	92.039	171.5623
53.000000	92.037	171.2086
53.799999	92.004	170.6545
54.500000	91.927	170.4097
55.200001	91.897	170.6251
56.000000	91.957	170.5000
57.000000	91.914	169.7346
58.000000	91.838	170.0519
59.000000	91.874	170.0186
60.000000	91.787	169.7270
60.799999	91.722	170.0354
61.500000	91.721	170.2455
62.200001	91.728	170.1520
63.000000	91.715	169.8792
64.000000	91.698	169.4667
65.000000	91.663	168.8933
66.000000	91.623	168.6554
67.000000	91.635	168.3463
68.000000	91.597	168.1119
69.000000	91.609	168.2800
70.000000	91.634	168.0227
71.000000	91.591	167.8466
72.000000	91.553	167.8896
73.000000	91.530	167.8814
74.000000	91.507	167.7102
75.000000	91.465	167.5259
76.199997	91.437	167.3950
77.500000	91.403	167.1166
78.800003	91.377	167.0608
80.000000	91.363	166.8448
81.199997	91.325	166.7167
82.500000	91.290	166.6309
83.800003	91.267	166.5504
85.000000	91.232	166.3353
86.199997	91.194	166.3189
87.500000	91.173	166.1321
88.500000	91.132	166.0228
90.000000	91.092	165.9526
91.199997	91.058	165.8435
92.500000	91.026	165.7311
93.800003	90.990	165.6153
95.000000	90.960	165.5472
96.199997	90.932	165.4503
97.500000	90.901	165.3994
98.800003	90.872	165.2255
100.000000	90.824	165.2433
101.500000	90.811	165.1699
103.000000	90.763	165.0663
104.400002	90.729	165.1027
106.000000	90.707	164.9631
107.500000	90.653	164.9164
109.000000	90.623	164.8173
110.599998	90.576	164.6687
112.000000	90.546	164.6643
113.800003	90.494	164.5453
115.000000	90.482	164.5625
117.199997	90.414	164.4864
118.000000	90.394	164.4862
120.599998	90.335	164.4398
122.000000	90.298	164.4313
124.099998	90.255	164.3434
125.000000	90.230	164.3787
126.500000	90.208	164.2761
128.000000	90.147	164.3149
131.500000	90.087	164.3330
132.000000	90.075	164.3264
134.000000	90.032	164.2812
136.000000	89.977	164.2934
138.000000	89.942	164.3441
140.000000	89.903	164.3280
143.000000	89.837	164.3481
145.000000	89.800	164.3864
147.500000	89.745	164.4242
150.000000	89.700	164.4932
152.500000	89.638	164.4891
155.000000	89.586	164.4611
157.500000	89.538	164.7054
160.000000	89.448	164.8211
162.500000	89.409	164.7699
165.000000	89.366	164.8124
167.500000	89.313	164.9409
170.000000	89.263	165.0253
172.500000	89.192	165.1716
175.000000	89.163	165.1507
177.500000	89.126	165.2367
180.000000	89.098	165.3522
182.500000	89.033	165.4922
185.000000	89.002	165.3165
187.500000	88.966	165.6919
190.000000	88.927	165.8034
192.500000	88.889	165.9243
195.000000	88.862	166.0733
197.500000	88.819	166.1532
200.000000	88.794	166.3048
203.000000	88.737	166.4965
206.000000	88.693	166.6183
209.000000	88.660	166.8102
212.000000	88.626	166.9743
214.000000	88.591	167.0769
218.000000	88.535	167.2575
220.000000	88.511	167.3309
224.000000	88.450	167.6375
227.000000	88.407	167.8040
230.000000	88.370	167.9771
233.000000	88.340	168.1404
236.000000	88.306	168.4202
240.000000	88.224	168.5604
243.000000	88.203	168.8136
247.000000	88.166	169.0647
250.000000	88.132	169.1630
254.000000	88.090	169.4465
258.000000	88.041	169.7702
262.000000	88.003	170.0023
265.000000	87.967	170.2048
269.000000	87.925	170.4959
272.000000	87.888	170.7282
276.000000	87.860	171.0006
280.000000	87.812	171.3054
285.000000	87.760	171.7247
290.000000	87.706	172.0147
295.000000	87.662	172.4315
300.000000	87.610	172.8860
304.000000	87.588	173.1952
307.000000	87.566	173.4627
311.000000	87.522	173.8260
315.000000	87.492	174.2509
320.000000	87.468	174.7069
325.000000	87.451	175.2242
330.000000	87.445	175.5657
335.000000	87.435	175.8661
340.000000	87.416	176.1244
345.000000	87.388	176.3433
350.000000	87.360	176.6821
355.000000	87.337	176.8858
360.000000	87.313	177.1965
365.000000	87.284	177.5144
370.000000	87.256	177.7607
375.000000	87.233	178.1484
382.000000	87.192	178.5942
387.000000	87.166	178.9203
395.000000	87.119	179.4753
400.000000	87.096	179.7690
406.000000	87.065	-179.8210
412.000000	87.036	-179.4109
418.000000	87.005	-178.9810
425.000000	86.982	-178.5164
431.000000	86.948	-178.0808
437.000000	86.921	-177.6613
444.000000	86.895	-177.1636
450.000000	86.873	-176.7278
455.000000	86.850	-176.4155
462.000000	86.825	-175.9485
468.000000	86.809	-175.4897
475.000000	86.782	-174.9999
482.000000	86.763	-174.5111
487.000000	86.748	-174.1016
494.000000	86.724	-173.6743
500.000000	86.721	-173.2713
508.000000	86.701	-172.7348
515.000000	86.686	-172.1611
522.000000	86.661	-171.7762
530.000000	86.649	-171.1739
538.000000	86.628	-170.6546
545.000000	86.609	-170.1455
552.000000	86.608	-169.6218
560.000000	86.592	-169.1432
570.000000	86.559	-168.4128
580.000000	86.544	-167.6169
590.000000	86.542	-166.8917
600.000000	86.526	-166.2213
608.000000	86.502	-165.6425
615.000000	86.495	-165.1577
622.000000	86.488	-164.6537
630.000000	86.476	-163.9658
640.000000	86.463	-163.1049
650.000000	86.455	-162.4661
660.000000	86.473	-161.7415
670.000000	86.474	-161.0689
680.000000	86.480	-160.3370
690.000000	86.492	-159.5494
700.000000	86.487	-158.7356
710.000000	86.488	-157.9516
720.000000	86.500	-157.2368
730.000000	86.508	-156.4656
740.000000	86.516	-155.7415
750.000000	86.538	-154.9133
762.000000	86.552	-153.9840
775.000000	86.582	-153.0826
788.000000	86.605	-152.0788
800.000000	86.630	-151.1321
812.000000	86.660	-150.2990
825.000000	86.701	-149.3599
838.000000	86.744	-148.4065
850.000000	86.797	-147.5259
862.000000	86.847	-146.6910
875.000000	86.904	-145.7603
885.000000	86.954	-145.0986
900.000000	87.026	-144.1100
912.000000	87.092	-143.3446
925.000000	87.163	-142.5392
938.000000	87.233	-141.7607
950.000000	87.314	-141.0570
962.000000	87.390	-140.3576
975.000000	87.478	-139.6939
988.000000	87.566	-138.9944
1000.000000	87.663	-138.4636
1015.000000	87.763	-137.7224
1030.000000	87.874	-137.0733
1044.000000	87.975	-136.5178
1060.000000	88.092	-135.8559
1075.000000	88.200	-135.3411
1090.000000	88.296	-134.8198
1106.000000	88.392	-134.2912
1120.000000	88.479	-133.8850
1138.000000	88.592	-133.3537
1150.000000	88.658	-133.0522
1172.000000	88.787	-132.4992
1180.000000	88.838	-132.3073
1206.000000	88.984	-131.7409
1220.000000	89.086	-131.4671
1241.000000	89.249	-131.0896
1250.000000	89.311	-130.9268
1265.000000	89.425	-130.6674
1280.000000	89.535	-130.4554
1315.000000	89.772	-129.9745
1320.000000	89.803	-129.9136
1340.000000	89.936	-129.6409
1360.000000	90.097	-129.4171
1380.000000	90.224	-129.1968
1400.000000	90.345	-128.9390
1430.000000	90.513	-128.5634
1450.000000	90.623	-128.3296
1475.000000	90.754	-128.0248
1500.000000	90.885	-127.6495
1525.000000	91.009	-127.2646
1550.000000	91.112	-126.8908
1575.000000	91.210	-126.4347
1600.000000	91.306	-126.0267
1625.000000	91.403	-125.5975
1650.000000	91.501	-125.1367
1675.000000	91.606	-124.6783
1700.000000	91.709	-124.2328
1725.000000	91.816	-123.7760
1750.000000	91.926	-123.2890
1775.000000	92.041	-122.8543
1800.000000	92.158	-122.4040
1825.000000	92.276	-121.9681
1850.000000	92.395	-121.5344
1875.000000	92.522	-121.1142
1900.000000	92.644	-120.7077
1925.000000	92.780	-120.3393
1950.000000	92.908	-119.9670
1975.000000	93.035	-119.6095
2000.000000	93.168	-119.3189
2030.000000	93.330	-118.9194
2060.000000	93.496	-118.6088
2090.000000	93.666	-118.3043
2120.000000	93.834	-118.0687
2140.000000	93.948	-117.9201
2180.000000	94.181	-117.7171
2200.000000	94.295	-117.6359
2240.000000	94.528	-117.5592
2270.000000	94.705	-117.5689
2300.000000	94.882	-117.6414
2330.000000	95.053	-117.7475
2360.000000	95.224	-117.8948
2400.000000	95.452	-118.2429
2430.000000	95.620	-118.5553
2470.000000	95.835	-119.0532
2500.000000	95.991	-119.5119
2540.000000	96.191	-120.1948
2580.000000	96.379	-120.9883
2620.000000	96.549	-121.8661
2650.000000	96.669	-122.5869
2690.000000	96.812	-123.5891
2720.000000	96.908	-124.4003
2760.000000	97.018	-125.4998
2800.000000	97.106	-126.6436
2850.000000	97.189	-128.1073
2900.000000	97.235	-129.5658
2950.000000	97.253	-130.9844
3000.000000	97.230	-132.3261
3040.000000	97.203	-133.3545
3070.000000	97.168	-134.0554
3110.000000	97.106	-134.9551
3150.000000	97.033	-135.7649
3200.000000	96.925	-136.6226
3250.000000	96.807	-137.3700
3300.000000	96.678	-137.9588
3350.000000	96.542	-138.4243
3400.000000	96.401	-138.7420
3450.000000	96.260	-138.9169
3500.000000	96.125	-138.9481
3550.000000	95.987	-138.8801
3600.000000	95.856	-138.6776
3650.000000	95.732	-138.3639
3700.000000	95.617	-137.9249
3750.000000	95.515	-137.4124
3820.000000	95.392	-136.5422
3870.000000	95.328	-135.9083
3950.000000	95.245	-134.8400
4000.000000	95.207	-134.1898
4060.000000	95.157	-133.3573
4120.000000	95.129	-132.5463
4180.000000	95.103	-131.6955
4250.000000	95.088	-130.7241
4310.000000	95.091	-129.8916
4370.000000	95.105	-129.0809
4440.000000	95.127	-128.1057
4500.000000	95.155	-127.2307
4550.000000	95.192	-126.4795
4620.000000	95.266	-125.4888
4680.000000	95.352	-124.6876
4750.000000	95.470	-123.9118
4820.000000	95.597	-123.2535
4870.000000	95.687	-122.8588
4940.000000	95.811	-122.4653
5000.000000	95.918	-122.2701
5080.000000	96.059	-122.0316
5150.000000	96.180	-121.9207
5220.000000	96.301	-121.8978
5300.000000	96.454	-121.9220
5380.000000	96.620	-122.1384
5450.000000	96.786	-122.5206
5520.000000	96.962	-123.2284
5600.000000	97.168	-124.6078
5700.000000	97.374	-127.5501
5800.000000	97.357	-131.8436
5900.000000	96.964	-136.2572
6000.000000	96.240	-139.0442
6080.000000	95.579	-139.6491
6150.000000	95.034	-139.0796
6220.000000	94.559	-137.7795
6300.000000	94.101	-135.7646
6400.000000	93.663	-132.7738
6500.000000	93.348	-129.5980
6600.000000	93.148	-126.2574
6700.000000	93.042	-123.0014
6800.000000	93.019	-119.7756
6900.000000	93.115	-116.6454
7000.000000	93.319	-113.6603
7100.000000	93.624	-110.8998
7200.000000	94.006	-108.4565
7300.000000	94.463	-106.3385
7400.000000	95.011	-104.8496
7500.000000	95.641	-104.0275
7620.000000	96.466	-104.2258
7750.000000	97.529	-106.3285
7880.000000	98.435	-111.1786
8000.000000	99.020	-118.7193
8120.000000	99.138	-128.3920
8250.000000	98.560	-139.0159
8380.000000	97.390	-147.2791
8500.000000	96.051	-151.8677
8620.000000	94.659	-153.5877
8750.000000	93.245	-152.5560
8850.000000	92.405	-150.4016
9000.000000	91.483	-147.8923
9120.000000	90.699	-146.3666
9250.000000	89.872	-143.9820
9380.000000	89.130	-140.9618
9500.000000	88.542	-137.9512
9620.000000	88.021	-134.7639
9750.000000	87.579	-131.3862
9880.000000	87.224	-128.2564
10000.000000	86.950	-125.4223
10150.000000	86.663	-122.8403
10300.000000	86.378	-120.7458
10440.000000	86.134	-119.3270
10600.000000	85.733	-118.1170
10750.000000	85.248	-117.2005
10900.000000	84.658	-116.1079
11060.000000	83.992	-114.3260
11200.000000	83.383	-112.0333
11380.000000	82.616	-108.0218
11500.000000	82.124	-105.0874
11720.000000	81.448	-99.1964
11800.000000	81.226	-97.0839
12060.000000	80.538	-89.5655
12200.000000	80.243	-85.2552
12410.000000	80.050	-79.1579
12500.000000	79.959	-76.6853
12650.000000	79.861	-72.6311
12800.000000	79.756	-68.6989
13150.000000	79.617	-59.2044
13200.000000	79.587	-57.8712
13400.000000	79.601	-52.4944
13600.000000	79.714	-46.8720
13800.000000	79.947	-41.3705
14000.000000	80.303	-36.1152
14300.000000	80.973	-28.6108
14500.000000	81.614	-23.8798
14750.000000	82.570	-18.6145
15000.000000	83.963	-15.2788
15250.000000	85.707	-15.3240
15500.000000	87.386	-22.1133
15750.000000	88.229	-35.1935
16000.000000	87.730	-48.6467
16250.000000	86.359	-56.2508
16500.000000	84.975	-58.2902
16750.000000	83.891	-56.7838
17000.000000	83.169	-53.5279
17250.000000	82.919	-49.9547
17500.000000	82.812	-46.2806
17750.000000	83.018	-43.9864
18000.000000	83.424	-42.3440
18250.000000	84.037	-42.2213
18500.000000	84.777	-45.4495
18750.000000	85.237	-50.9005
19000.000000	85.547	-56.6397
19250.000000	85.744	-62.4155
19500.000000	86.095	-69.4719
19750.000000	86.301	-79.0646
