* Measurement data measured by REW V5.20.4
* Source: Microphone (2- KM-HIFI-384KHZ), MICROPHONE (Master Volume), R, volume: 0.250
* Format: 256k Log Swept Sine, 1 sweep at -6.0 dBFS with no timing reference
* Dated: 25 Mar, 2022 5:04:11 PM
* REW Settings:
*  C-weighting compensation: Off
*  Target level: 75.0 dB
* Note: 
* Measurement: B2W R
* Smoothing: None
* Frequency Step: 1/96 octave
* Start Frequency: 20.000 Hz
*
* Freq(Hz)	SPL(dB)	Phase(degrees)
20.000000	93.257	-178.9560
20.144928	93.255	-179.0855
20.290907	93.253	-179.2163
20.437943	93.251	-179.3464
20.586044	93.249	-179.4730
20.735220	93.248	-179.5961
20.885475	93.247	-179.7182
21.036821	93.246	-179.8404
21.189262	93.246	-179.9616
21.342808	93.247	179.9188
21.497467	93.249	179.8008
21.653246	93.252	179.6835
21.810154	93.254	179.5685
21.968201	93.258	179.4501
22.127390	93.262	179.3236
22.287735	93.266	179.1920
22.449242	93.270	179.0568
22.611917	93.273	178.9176
22.775772	93.275	178.7770
22.940815	93.276	178.6342
23.107054	93.276	178.4930
23.274498	93.274	178.3527
23.443153	93.271	178.2199
23.613033	93.267	178.0999
23.784142	93.263	177.9900
23.956491	93.259	177.8909
24.130091	93.256	177.8004
24.304947	93.255	177.7142
24.481071	93.254	177.6322
24.658470	93.253	177.5499
24.837156	93.254	177.4673
25.017136	93.254	177.3780
25.198421	93.254	177.2838
25.381020	93.253	177.1910
25.564941	93.251	177.1003
25.750195	93.248	177.0215
25.936790	93.244	176.9536
26.124741	93.242	176.8950
26.314051	93.241	176.8446
26.504732	93.243	176.7991
26.696796	93.247	176.7534
26.890253	93.253	176.6907
27.085112	93.260	176.6077
27.281382	93.267	176.4894
27.479073	93.273	176.3436
27.678198	93.276	176.1705
27.878765	93.273	175.9866
28.080786	93.265	175.7964
28.284271	93.252	175.6263
28.489231	93.234	175.4818
28.695675	93.216	175.3803
28.903616	93.198	175.3178
29.113064	93.185	175.2854
29.324028	93.177	175.2670
29.536524	93.175	175.2487
29.750557	93.179	175.2060
29.966141	93.186	175.1308
30.183289	93.194	175.0111
30.402010	93.201	174.8563
30.622314	93.202	174.6788
30.844217	93.198	174.5009
31.067726	93.188	174.3328
31.292856	93.176	174.1939
31.519617	93.162	174.0836
31.748020	93.150	174.0057
31.978081	93.142	173.9405
32.209808	93.137	173.8805
32.443211	93.134	173.8077
32.678310	93.133	173.7202
32.915108	93.132	173.6157
33.153625	93.129	173.4996
33.393871	93.122	173.3823
33.635857	93.108	173.2729
33.879597	93.099	173.1780
34.125103	93.092	173.0939
34.372387	93.086	173.0172
34.621464	93.081	172.9424
34.872345	93.078	172.8655
35.125042	93.075	172.7834
35.379574	93.072	172.6970
35.635948	93.069	172.6098
35.894180	93.067	172.5223
36.154285	93.066	172.4302
36.416275	93.066	172.3276
36.680161	93.065	172.2118
36.945961	93.064	172.0804
37.213688	93.060	171.9367
37.483353	93.053	171.7951
37.754974	93.042	171.6669
38.028561	93.030	171.5634
38.304131	93.017	171.4837
38.581699	93.007	171.4192
38.861279	93.000	171.3584
39.142883	92.996	171.2849
39.426529	92.993	171.1903
39.712231	92.988	171.0818
40.000000	92.980	170.9689
40.289856	92.970	170.8633
40.581814	92.959	170.7762
40.875885	92.949	170.7056
41.172089	92.941	170.6414
41.470440	92.934	170.5750
41.770950	92.927	170.5019
42.073643	92.920	170.4233
42.378525	92.912	170.3471
42.685616	92.903	170.2808
42.994934	92.896	170.2224
43.306492	92.892	170.1623
43.620308	92.889	170.0880
43.936401	92.888	169.9884
44.254780	92.884	169.8595
44.575470	92.876	169.7133
44.898483	92.863	169.5670
45.223835	92.845	169.4370
45.551544	92.826	169.3359
45.881630	92.808	169.2673
46.214108	92.794	169.2206
46.548996	92.785	169.1761
46.886307	92.781	169.1111
47.226067	92.779	169.0083
47.568283	92.774	168.8708
47.912983	92.763	168.7230
48.260181	92.747	168.5975
48.609894	92.730	168.5197
48.962143	92.718	168.4851
49.316940	92.714	168.4567
49.674313	92.717	168.3902
50.034271	92.719	168.2648
50.396843	92.713	168.1040
50.762039	92.696	167.9654
51.129883	92.674	167.8991
51.500389	92.657	167.9076
51.873581	92.652	167.9363
52.249481	92.657	167.9087
52.628101	92.660	167.7911
53.009464	92.650	167.6216
53.393593	92.625	167.4825
53.780506	92.592	167.4376
54.170223	92.567	167.4734
54.562763	92.555	167.5094
54.958145	92.550	167.4686
55.356396	92.538	167.3469
55.757530	92.512	167.2238
56.161572	92.479	167.1879
56.568542	92.457	167.2460
56.978462	92.456	167.3024
57.391350	92.470	167.2382
57.807232	92.481	167.0226
58.226128	92.475	166.7332
58.648056	92.456	166.4702
59.073048	92.435	166.2585
59.501114	92.417	166.0418
59.932281	92.389	165.7911
60.366577	92.346	165.5901
60.804020	92.299	165.5723
61.244629	92.276	165.7401
61.688435	92.295	165.8871
62.135452	92.336	165.7631
62.585712	92.349	165.3634
63.039234	92.307	164.9837
63.496040	92.236	164.9447
63.956161	92.196	165.2756
64.419617	92.220	165.6233
64.886421	92.279	165.6246
65.356621	92.316	165.2635
65.830215	92.301	164.8329
66.307251	92.257	164.5948
66.787743	92.219	164.5440
67.271713	92.199	164.5074
67.759193	92.178	164.3997
68.250206	92.146	164.2999
68.744774	92.112	164.2942
69.242928	92.092	164.3431
69.744690	92.084	164.3481
70.250084	92.077	164.2794
70.759148	92.065	164.1886
71.271896	92.050	164.1132
71.788361	92.037	164.0369
72.308571	92.024	163.9352
72.832550	92.006	163.8209
73.360321	91.983	163.7299
73.891922	91.959	163.6816
74.427376	91.939	163.6601
74.966705	91.927	163.6281
75.509949	91.916	163.5517
76.057121	91.901	163.4377
76.608261	91.879	163.3292
77.163399	91.855	163.2575
77.722557	91.834	163.2103
78.285767	91.819	163.1546
78.853058	91.804	163.0756
79.424461	91.787	162.9839
80.000000	91.767	162.8938
80.579712	91.745	162.8155
81.163628	91.722	162.7643
81.751770	91.703	162.7451
82.344177	91.689	162.7274
82.940880	91.680	162.6614
83.541901	91.665	162.5463
84.147285	91.641	162.4382
84.757050	91.615	162.3812
85.371231	91.592	162.3491
85.989868	91.571	162.3038
86.612984	91.550	162.2578
87.240616	91.530	162.2261
87.872803	91.515	162.1799
88.509560	91.499	162.0972
89.150940	91.478	162.0104
89.796967	91.456	161.9425
90.447670	91.436	161.8759
91.103088	91.414	161.8025
91.763260	91.390	161.7458
92.428215	91.368	161.7087
93.097992	91.348	161.6685
93.772614	91.328	161.6207
94.452133	91.307	161.5786
95.136566	91.287	161.5337
95.825966	91.267	161.4734
96.520363	91.245	161.4175
97.219788	91.223	161.3747
97.924286	91.201	161.3136
98.633881	91.175	161.2488
99.348625	91.146	161.2372
100.068542	91.126	161.2413
100.793686	91.110	161.1761
101.524078	91.084	161.0911
102.259766	91.056	161.0621
103.000778	91.035	161.0321
103.747162	91.012	160.9700
104.498962	90.986	160.9356
105.256203	90.965	160.9063
106.018929	90.941	160.8374
106.787186	90.911	160.8057
107.561012	90.887	160.8291
108.340446	90.871	160.7971
109.125526	90.845	160.7295
109.916290	90.816	160.7224
110.712791	90.793	160.7139
111.515060	90.765	160.6833
112.323143	90.738	160.7044
113.137085	90.721	160.6858
113.956924	90.694	160.6063
114.782700	90.663	160.5865
115.614464	90.641	160.5537
116.452255	90.612	160.4902
117.296112	90.585	160.4775
118.146095	90.564	160.4278
119.002228	90.533	160.3846
119.864563	90.507	160.4082
120.733154	90.488	160.3919
121.608040	90.462	160.3591
122.489258	90.431	160.3519
123.376869	90.402	160.3894
124.270905	90.382	160.3771
125.171425	90.348	160.2784
126.078468	90.307	160.3225
126.992081	90.293	160.3310
127.912323	90.264	160.2135
128.839233	90.229	160.2173
129.772842	90.206	160.1944
130.713242	90.171	160.1767
131.660431	90.142	160.2702
132.614502	90.124	160.3214
133.575485	90.099	160.3284
134.543427	90.069	160.3390
135.518387	90.033	160.3458
136.500412	89.994	160.4106
137.489548	89.975	160.4703
138.485855	89.954	160.3503
139.489380	89.902	160.2878
140.500168	89.867	160.4437
141.518295	89.864	160.4713
142.543793	89.834	160.2961
143.576721	89.778	160.3562
144.617142	89.753	160.4549
145.665100	89.712	160.4071
146.720642	89.660	160.4897
147.783844	89.612	160.5806
148.854752	89.568	160.7337
149.933411	89.533	160.7704
151.019897	89.474	160.8773
152.114243	89.440	161.0660
153.216522	89.395	161.0868
154.326797	89.343	161.2792
155.445114	89.307	161.3679
156.571533	89.233	161.4124
157.706116	89.159	161.8527
158.848923	89.146	162.0374
160.000000	89.035	162.1503
161.159424	88.995	162.9836
162.327255	88.993	163.2197
163.503540	88.961	163.8049
164.688354	88.993	164.3231
165.881760	89.023	164.7181
167.083801	89.033	165.0912
168.294571	89.070	165.7451
169.514099	89.132	165.9708
170.742462	89.188	166.0536
171.979736	89.168	165.6995
173.225967	89.177	166.2985
174.481232	89.290	165.7856
175.745605	89.270	165.4623
177.019119	89.299	165.2189
178.301880	89.287	165.0654
179.593933	89.291	164.9960
180.895340	89.272	164.8945
182.206177	89.264	164.8464
183.526520	89.238	164.6790
184.856430	89.215	164.5844
186.195984	89.192	164.5493
187.545227	89.167	164.4216
188.904266	89.132	164.5296
190.273132	89.110	164.5738
191.651932	89.102	164.4988
193.040726	89.059	164.3961
194.439575	89.034	164.3857
195.848572	89.019	164.4082
197.267761	88.988	164.3935
198.697250	88.983	164.5173
200.137085	88.954	164.5216
201.587372	88.934	164.5695
203.048157	88.910	164.5898
204.519531	88.881	164.6009
206.001556	88.868	164.6644
207.494324	88.838	164.6671
208.997925	88.823	164.7292
210.512405	88.783	164.7647
212.037857	88.763	164.8618
213.574371	88.740	164.9457
215.122025	88.712	164.9365
216.680893	88.685	165.0176
218.251053	88.654	165.1026
219.832581	88.632	165.1771
221.425583	88.606	165.2320
223.030121	88.578	165.3536
224.646286	88.549	165.4160
226.274170	88.521	165.5143
227.913849	88.494	165.5617
229.565399	88.468	165.6762
231.228928	88.444	165.8032
232.904510	88.422	165.8711
234.592224	88.400	166.0902
236.292191	88.361	166.1123
238.004456	88.339	166.2773
239.729126	88.303	166.3376
241.466309	88.295	166.4347
243.216080	88.271	166.6561
244.978516	88.237	166.7591
246.753738	88.228	166.8154
248.541809	88.207	166.8921
250.342850	88.174	167.0544
252.156937	88.155	167.0969
253.984161	88.130	167.2227
255.824646	88.107	167.4168
257.678467	88.089	167.5440
259.545685	88.061	167.5472
261.426483	88.036	167.8499
263.320862	88.013	167.8788
265.229004	87.973	168.0247
267.150970	87.969	168.1777
269.086853	87.962	168.3833
271.036774	87.928	168.4388
273.000824	87.911	168.6576
274.979095	87.878	168.7584
276.971710	87.860	168.8924
278.978760	87.837	169.0126
281.000336	87.823	169.1767
283.036591	87.794	169.3734
285.087585	87.767	169.4978
287.153442	87.746	169.6233
289.234283	87.725	169.7872
291.330200	87.703	169.9690
293.441284	87.674	170.1332
295.567688	87.653	170.3048
297.709503	87.632	170.4277
299.866821	87.617	170.5827
302.039795	87.595	170.7462
304.228485	87.571	170.9239
306.433044	87.545	171.1588
308.653595	87.526	171.2593
310.890228	87.509	171.5342
313.143066	87.474	171.6246
315.412231	87.458	171.8218
317.697845	87.442	172.0908
320.000000	87.414	172.2319
322.318848	87.390	172.3697
324.654510	87.371	172.6082
327.007080	87.345	172.7742
329.376709	87.324	172.9646
331.763519	87.305	173.1888
334.167603	87.287	173.4089
336.589142	87.259	173.6343
339.028198	87.238	173.8307
341.484924	87.215	174.0704
343.959473	87.200	174.3057
346.451935	87.180	174.5584
348.962463	87.158	174.8192
351.491211	87.140	174.9857
354.038239	87.127	175.3201
356.603760	87.108	175.6206
359.187866	87.098	175.8738
361.790680	87.089	176.1996
364.412354	87.088	176.4719
367.053040	87.083	176.7780
369.712860	87.089	177.0721
372.391968	87.098	177.2667
375.090454	87.108	177.5040
377.808533	87.114	177.6626
380.546265	87.106	177.7798
383.303864	87.109	177.8699
386.081451	87.107	178.0114
388.879150	87.094	178.1390
391.697144	87.081	178.2482
394.535522	87.066	178.3955
397.394501	87.056	178.5671
400.274170	87.044	178.7411
403.174744	87.021	178.9201
406.096313	87.011	179.0508
409.039062	86.987	179.2564
412.003113	86.980	179.4554
414.988647	86.963	179.6189
417.995850	86.949	179.8447
421.024811	86.932	-179.9525
424.075714	86.916	-179.7237
427.148743	86.900	-179.5215
430.244049	86.883	-179.3210
433.361786	86.869	-179.0896
436.502106	86.854	-178.8740
439.665161	86.839	-178.6590
442.851166	86.829	-178.4159
446.060242	86.808	-178.2081
449.292572	86.801	-177.9383
452.548340	86.789	-177.7174
455.827698	86.767	-177.4801
459.130798	86.762	-177.2354
462.457855	86.741	-177.0183
465.809021	86.731	-176.7544
469.184448	86.723	-176.4986
472.584381	86.704	-176.2650
476.008911	86.690	-176.0728
479.458252	86.681	-175.7928
482.932617	86.669	-175.5459
486.432159	86.662	-175.3209
489.957031	86.645	-175.0611
493.507477	86.633	-174.8315
497.083618	86.626	-174.5057
500.685699	86.618	-174.2668
504.313873	86.611	-174.0151
507.968323	86.593	-173.7943
511.649292	86.588	-173.4332
515.356934	86.583	-173.2400
519.091370	86.568	-172.8729
522.852966	86.565	-172.6503
526.641724	86.559	-172.3268
530.458008	86.546	-172.1485
534.301941	86.536	-171.7889
538.173706	86.533	-171.5540
542.073547	86.517	-171.3221
546.001648	86.508	-170.9869
549.958191	86.498	-170.6573
553.943420	86.489	-170.3310
557.957520	86.478	-170.0864
562.000671	86.468	-169.7275
566.073181	86.473	-169.3930
570.175171	86.455	-169.1840
574.306885	86.436	-168.8158
578.468567	86.430	-168.4805
582.660400	86.418	-168.1493
586.882568	86.412	-167.7981
591.135376	86.419	-167.5301
595.419006	86.426	-167.2378
599.733643	86.432	-166.9513
604.079590	86.427	-166.6144
608.456970	86.423	-166.3199
612.866089	86.416	-166.0457
617.307190	86.398	-165.7354
621.780457	86.396	-165.3152
626.286133	86.402	-164.9196
630.824463	86.402	-164.5713
635.395691	86.403	-164.2135
640.000000	86.401	-163.8221
644.637695	86.397	-163.4359
649.309021	86.381	-163.1698
654.014160	86.379	-162.8361
658.753418	86.375	-162.5182
663.527039	86.392	-162.1468
668.335205	86.403	-161.7707
673.178284	86.410	-161.3852
678.056396	86.410	-161.0370
682.969849	86.415	-160.6746
687.918945	86.402	-160.2380
692.903870	86.396	-159.8614
697.924927	86.394	-159.5241
702.982422	86.394	-159.0539
708.076477	86.397	-158.7230
713.207520	86.407	-158.2764
718.375732	86.410	-157.7677
723.581360	86.401	-157.4525
728.824707	86.404	-157.0547
734.106079	86.409	-156.6478
739.425720	86.417	-156.2685
744.783936	86.430	-155.8511
750.180908	86.444	-155.4318
755.617065	86.452	-155.0779
761.092529	86.465	-154.6203
766.607727	86.463	-154.0960
772.162903	86.479	-153.7773
777.758301	86.504	-153.3502
783.394287	86.510	-152.9503
789.071045	86.517	-152.4947
794.789001	86.527	-152.0334
800.548340	86.545	-151.5864
806.349487	86.567	-151.1274
812.192627	86.597	-150.7200
818.078125	86.612	-150.2889
824.006226	86.645	-149.8918
829.977295	86.664	-149.4543
835.991699	86.695	-149.0175
842.049622	86.726	-148.5915
848.151428	86.745	-148.2217
854.297485	86.782	-147.7298
860.488098	86.812	-147.3109
866.723572	86.843	-146.8419
873.004211	86.870	-146.3833
879.330322	86.894	-145.9964
885.702332	86.923	-145.5508
892.120483	86.961	-145.1344
898.585144	87.002	-144.7259
905.096680	87.038	-144.2659
911.655396	87.070	-143.8904
918.261597	87.107	-143.4916
924.915710	87.151	-143.0422
931.618042	87.187	-142.6771
938.368896	87.241	-142.2726
945.168762	87.273	-141.8597
952.017822	87.318	-141.4994
958.916504	87.363	-141.0976
965.865234	87.409	-140.7778
972.864319	87.464	-140.3811
979.914062	87.511	-140.0343
987.014954	87.561	-139.6676
994.167236	87.616	-139.3263
1001.371399	87.670	-138.9783
1008.627747	87.724	-138.7056
1015.936646	87.775	-138.3348
1023.298584	87.834	-138.0528
1030.713867	87.885	-137.7179
1038.182739	87.941	-137.4221
1045.705933	87.997	-137.1552
1053.283447	88.055	-136.8764
1060.916016	88.110	-136.6081
1068.603882	88.165	-136.3084
1076.347412	88.215	-136.0222
1084.147095	88.271	-135.8069
1092.003296	88.316	-135.5478
1099.916382	88.365	-135.3399
1107.886841	88.413	-135.0783
1115.915039	88.459	-134.8475
1124.001343	88.508	-134.6181
1132.146362	88.556	-134.4175
1140.350342	88.604	-134.2007
1148.613770	88.646	-134.0045
1156.937134	88.694	-133.7785
1165.320801	88.740	-133.5854
1173.765137	88.789	-133.3796
1182.270752	88.831	-133.1918
1190.838013	88.871	-133.0073
1199.467285	88.917	-132.8218
1208.159180	88.961	-132.5968
1216.913940	89.023	-132.4475
1225.732178	89.081	-132.2679
1234.614380	89.145	-132.0665
1243.560913	89.215	-131.8764
1252.572266	89.272	-131.7244
1261.648926	89.337	-131.5399
1270.791382	89.400	-131.3795
1280.000000	89.462	-131.1871
1289.275391	89.525	-131.0389
1298.618042	89.587	-130.8516
1308.028320	89.649	-130.6893
1317.506836	89.713	-130.5194
1327.054077	89.774	-130.3173
1336.670410	89.836	-130.1896
1346.356567	89.899	-130.0095
1356.112793	89.958	-129.8365
1365.939697	90.069	-129.6792
1375.837891	90.133	-129.5186
1385.807739	90.201	-129.3382
1395.849854	90.267	-129.1823
1405.964844	90.330	-129.0364
1416.152954	90.395	-128.8474
1426.415039	90.458	-128.7078
1436.751465	90.527	-128.5308
1447.162720	90.588	-128.3863
1457.649414	90.651	-128.1960
1468.212158	90.719	-128.0655
1478.851440	90.782	-127.9180
1489.567871	90.847	-127.7566
1500.361816	90.908	-127.5806
1511.234131	90.971	-127.4169
1522.185059	91.039	-127.2406
1533.215454	91.090	-127.0842
1544.325806	91.142	-126.9113
1555.516602	91.193	-126.7388
1566.788574	91.243	-126.5632
1578.142090	91.295	-126.3876
1589.578003	91.346	-126.2176
1601.096680	91.401	-126.0301
1612.698975	91.451	-125.8443
1624.385254	91.506	-125.6651
1636.156250	91.558	-125.4686
1648.012451	91.613	-125.2587
1659.954590	91.664	-125.0856
1671.983398	91.721	-124.8795
1684.099243	91.777	-124.6814
1696.302856	91.834	-124.4841
1708.594971	91.889	-124.2548
1720.976196	91.950	-124.0719
1733.447144	92.012	-123.8883
1746.008423	92.074	-123.6709
1758.660645	92.136	-123.4820
1771.404663	92.195	-123.2468
1784.240967	92.262	-123.0464
1797.170288	92.326	-122.8300
1810.193359	92.387	-122.6061
1823.310791	92.457	-122.4245
1836.523193	92.526	-122.2190
1849.831421	92.595	-121.9937
1863.236084	92.669	-121.8233
1876.737793	92.741	-121.6385
1890.337524	92.812	-121.4312
1904.035645	92.882	-121.2398
1917.833008	92.961	-121.0233
1931.730469	93.040	-120.8699
1945.728638	93.116	-120.6894
1959.828125	93.196	-120.5097
1974.029907	93.270	-120.3589
1988.334473	93.356	-120.1948
2002.742798	93.439	-120.0586
2017.255493	93.523	-119.8814
2031.873291	93.606	-119.7584
2046.597168	93.693	-119.6201
2061.427734	93.778	-119.5070
2076.365479	93.869	-119.3908
2091.411865	93.958	-119.2959
2106.566895	94.052	-119.2158
2121.832031	94.145	-119.1298
2137.207764	94.242	-119.0704
2152.694824	94.335	-119.0131
2168.294189	94.429	-118.9792
2184.006592	94.528	-118.9501
2199.832764	94.628	-118.9610
2215.773682	94.727	-118.9682
2231.830078	94.829	-118.9833
2248.002686	94.928	-119.0337
2264.292725	95.030	-119.0913
2280.700684	95.132	-119.1734
2297.227539	95.235	-119.2694
2313.874268	95.334	-119.3983
2330.641602	95.440	-119.5294
2347.530273	95.541	-119.7110
2364.541504	95.645	-119.8818
2381.676025	95.749	-120.0924
2398.934570	95.853	-120.3089
2416.318359	95.949	-120.5962
2433.827881	96.055	-120.8764
2451.464355	96.152	-121.1788
2469.228760	96.252	-121.5135
2487.121826	96.347	-121.8503
2505.144531	96.444	-122.2496
2523.297852	96.539	-122.6633
2541.582764	96.630	-123.1008
2560.000000	96.718	-123.5771
2578.550781	96.806	-124.0491
2597.236084	96.888	-124.5574
2616.056641	96.964	-125.0906
2635.013672	97.042	-125.6563
2654.108154	97.111	-126.2516
2673.340820	97.177	-126.8576
2692.713135	97.240	-127.4691
2712.225586	97.295	-128.1090
2731.879395	97.347	-128.7677
2751.675781	97.393	-129.4425
2771.615479	97.434	-130.1161
2791.699707	97.468	-130.7964
2811.929688	97.498	-131.5192
2832.305908	97.520	-132.2170
2852.830078	97.533	-132.9146
2873.502930	97.545	-133.6295
2894.325439	97.546	-134.3378
2915.298828	97.541	-135.0287
2936.424316	97.533	-135.7216
2957.702881	97.518	-136.3947
2979.135742	97.493	-137.0203
3000.723633	97.467	-137.6597
3022.468262	97.433	-138.3151
3044.370117	97.396	-138.9168
3066.430908	97.349	-139.5024
3088.651611	97.302	-140.0435
3111.033203	97.246	-140.5630
3133.577148	97.187	-141.0620
3156.284180	97.125	-141.5264
3179.156006	97.058	-141.9478
3202.193359	96.989	-142.3450
3225.397949	96.917	-142.7157
3248.770508	96.842	-143.0215
3272.312500	96.767	-143.3261
3296.024902	96.687	-143.5753
3319.909180	96.607	-143.7976
3343.966797	96.529	-143.9628
3368.198486	96.447	-144.1180
3392.605713	96.367	-144.2408
3417.189941	96.287	-144.3190
3441.952393	96.208	-144.3584
3466.894287	96.129	-144.3727
3492.016846	96.051	-144.3467
3517.321289	95.976	-144.3302
3542.809326	95.897	-144.2450
3568.481934	95.826	-144.1387
3594.340576	95.752	-144.0139
3620.386719	95.683	-143.8629
3646.621582	95.612	-143.6808
3673.046387	95.545	-143.4796
3699.662842	95.478	-143.2527
3726.472168	95.416	-142.9981
3753.475586	95.349	-142.6801
3780.675049	95.295	-142.4174
3808.071289	95.236	-142.0851
3835.666016	95.181	-141.7412
3863.460938	95.134	-141.3778
3891.457275	95.082	-141.0091
3919.656250	95.036	-140.6000
3948.059814	94.993	-140.2007
3976.668945	94.949	-139.7509
4005.485596	94.912	-139.3221
4034.510986	94.882	-138.8468
4063.746582	94.851	-138.3945
4093.194336	94.820	-137.9307
4122.855469	94.799	-137.4116
4152.730957	94.778	-136.9587
4182.823730	94.760	-136.4131
4213.133789	94.747	-135.9071
4243.664062	94.737	-135.3877
4274.415527	94.734	-134.8479
4305.389648	94.736	-134.3300
4336.588379	94.740	-133.7951
4368.013184	94.752	-133.3034
4399.665527	94.768	-132.7794
4431.547363	94.786	-132.2985
4463.660156	94.801	-131.8133
4496.005371	94.823	-131.3402
4528.585449	94.852	-130.8338
4561.401367	94.871	-130.4211
4594.455078	94.901	-129.9742
4627.748535	94.931	-129.5007
4661.283203	94.964	-129.0517
4695.060547	94.995	-128.5959
4729.083008	95.038	-128.1081
4763.352051	95.086	-127.6610
4797.869141	95.137	-127.2455
4832.636719	95.185	-126.8039
4867.655762	95.239	-126.4806
4902.928711	95.290	-126.1518
4938.457520	95.350	-125.7904
4974.243652	95.402	-125.4858
5010.289062	95.461	-125.2455
5046.595703	95.521	-124.9750
5083.165527	95.582	-124.7427
5120.000000	95.640	-124.5375
5157.101562	95.700	-124.3285
5194.472168	95.763	-124.1611
5232.113281	95.821	-124.0188
5270.027344	95.886	-123.8181
5308.216309	95.950	-123.6733
5346.681641	96.013	-123.5167
5385.426270	96.087	-123.4096
5424.451172	96.159	-123.2664
5463.758789	96.236	-123.1684
5503.351562	96.312	-123.1044
5543.230957	96.396	-123.0674
5583.399414	96.490	-123.0310
5623.859375	96.595	-123.1208
5664.611816	96.711	-123.2961
5705.660156	96.837	-123.5622
5747.005859	96.974	-124.0170
5788.650879	97.111	-124.6737
5830.597656	97.247	-125.5830
5872.848633	97.369	-126.7847
5915.405762	97.458	-128.2548
5958.271484	97.500	-129.9927
6001.447266	97.484	-131.8661
6044.936523	97.388	-133.7648
6088.740234	97.223	-135.5551
6132.861816	96.997	-137.0240
6177.303223	96.724	-138.1411
6222.066406	96.427	-138.8401
6267.154297	96.125	-139.1206
6312.568359	95.827	-138.9894
6358.312012	95.548	-138.5339
6404.386719	95.300	-137.8785
6450.795898	95.070	-137.0274
6497.541016	94.872	-135.9089
6544.625000	94.705	-134.7624
6592.049805	94.571	-133.5378
6639.818359	94.477	-132.1996
6687.933594	94.393	-130.8607
6736.396973	94.343	-129.4476
6785.211426	94.320	-128.1102
6834.379883	94.326	-126.7605
6883.904785	94.373	-125.4423
6933.788574	94.469	-124.1068
6984.033691	94.587	-122.8602
7034.642578	94.736	-121.6865
7085.618652	94.902	-120.5337
7136.963867	95.110	-119.4879
7188.681152	95.342	-118.6094
7240.773438	95.602	-117.8543
7293.243164	95.893	-117.3015
7346.092773	96.206	-116.9269
7399.325684	96.554	-116.8155
7452.944336	96.925	-117.0210
7506.951172	97.323	-117.5782
7561.350098	97.739	-118.6470
7616.142578	98.158	-120.1493
7671.332031	98.582	-122.3084
7726.921875	99.092	-125.0334
7782.914551	99.401	-128.5054
7839.312500	99.631	-132.6694
7896.119629	99.750	-137.4061
7953.337891	99.731	-142.5559
8010.971191	99.542	-147.8281
8069.021973	99.198	-152.9411
8127.493164	98.713	-157.5963
8186.388672	98.116	-161.6303
8245.710938	97.432	-164.9400
8305.461914	96.696	-167.5428
8365.647461	95.939	-169.3676
8426.267578	95.170	-170.5898
8487.328125	94.400	-171.1188
8548.831055	93.649	-171.1294
8610.779297	92.908	-170.5895
8673.176758	92.170	-169.5924
8736.026367	91.473	-167.8860
8799.331055	90.831	-165.5504
8863.094727	90.331	-162.5184
8927.320312	90.015	-159.6448
8992.010742	89.814	-157.6025
9057.170898	89.582	-156.5071
9122.802734	89.297	-155.6158
9188.910156	88.971	-154.5931
9255.497070	88.611	-153.4530
9322.566406	88.264	-152.1163
9390.121094	87.925	-150.5894
9458.166016	87.605	-149.0399
9526.704102	87.287	-147.2562
9595.738281	87.031	-145.6181
9665.273438	86.740	-143.9330
9735.311523	86.512	-142.2061
9805.857422	86.299	-140.5903
9876.915039	86.094	-138.7734
9948.487305	85.897	-137.5100
10020.578125	85.706	-136.0792
10093.191406	85.541	-134.6939
10166.331055	85.384	-133.4648
10240.000000	85.216	-132.4558
10314.203125	85.044	-131.3958
10388.944336	84.863	-130.6082
10464.226562	84.645	-129.9436
10540.054688	84.451	-129.2343
10616.432617	84.209	-128.5334
10693.363281	83.970	-128.0294
10770.852539	83.664	-127.1885
10848.902344	83.338	-126.3472
10927.517578	83.006	-125.4621
11006.703125	82.639	-124.2548
11086.461914	82.298	-123.2121
11166.798828	81.954	-121.7271
11247.718750	81.566	-119.8546
11329.223633	81.231	-117.8793
11411.320312	80.874	-116.0979
11494.011719	80.525	-113.6310
11577.301758	80.210	-111.3717
11661.195312	79.921	-108.6577
11745.697266	79.662	-106.4150
11830.811523	79.420	-103.6694
11916.542969	79.172	-100.9719
12002.894531	78.983	-98.3899
12089.873047	78.775	-95.9045
12177.480469	78.594	-93.5617
12265.723633	78.423	-90.4783
12354.606445	78.261	-87.6315
12444.132812	78.122	-84.7611
12534.308594	78.035	-81.7790
12625.136719	77.969	-78.8441
12716.624023	77.913	-76.4132
12808.773438	77.859	-73.1981
12901.591797	77.805	-70.8272
12995.082031	77.724	-67.4241
13089.250000	77.768	-65.0519
13184.099609	77.713	-62.5892
13279.636719	77.635	-59.4020
13375.867188	77.741	-56.3657
13472.793945	77.710	-53.9964
13570.422852	77.794	-51.1174
13668.759766	77.818	-48.4604
13767.809570	77.928	-45.3944
13867.577148	78.032	-42.8111
13968.067383	78.151	-40.0337
14069.285156	78.313	-37.0336
14171.237305	78.559	-33.9714
14273.927734	78.722	-31.4408
14377.362305	78.959	-28.4832
14481.546875	79.264	-25.7244
14586.486328	79.622	-23.0863
14692.185547	80.046	-20.7135
14798.651367	80.525	-18.5787
14905.888672	81.049	-16.3690
15013.902344	81.685	-14.8583
15122.700195	82.373	-13.9143
15232.285156	83.153	-13.9646
15342.664062	84.019	-15.0966
15453.843750	84.873	-18.2719
15565.829102	85.655	-23.2352
15678.625000	86.208	-30.1595
15792.239258	86.379	-38.7337
15906.675781	86.070	-47.2980
16021.942383	85.401	-54.4419
16138.043945	84.450	-59.8959
16254.986328	83.466	-63.1292
16372.777344	82.408	-64.5747
16491.421875	81.488	-64.5127
16610.923828	80.690	-64.2447
16731.294922	79.878	-62.1482
16852.535156	79.243	-60.2624
16974.656250	78.676	-57.6309
17097.662109	78.216	-54.7949
17221.558594	77.783	-51.7222
17346.353516	77.560	-48.9307
17472.052734	77.323	-46.2148
17598.662109	77.215	-43.4928
17726.189453	77.065	-41.9600
17854.640625	76.950	-40.4500
17984.021484	76.796	-38.1912
18114.341797	76.555	-36.5693
18245.605469	76.421	-34.6494
18377.820312	76.231	-31.9100
18510.994141	76.130	-29.3525
18645.132812	76.028	-26.3735
18780.242188	76.030	-22.5848
18916.332031	76.194	-18.5769
19053.408203	76.686	-15.8850
19191.476562	77.374	-15.5361
19330.546875	77.891	-15.8235
19470.623047	78.256	-16.1623
19611.714844	78.652	-17.9968
19753.830078	79.073	-19.3818
19896.974609	79.369	-21.5341
