* Measurement data measured by REW V5.20.4
* Source: Microphone (2- KM-HIFI-384KHZ), MICROPHONE (Master Volume), L, volume: 0.250
* Format: 256k Log Swept Sine, 1 sweep at -6.0 dBFS with no timing reference
* Dated: 25 Mar, 2022 5:30:14 PM
* REW Settings:
*  C-weighting compensation: Off
*  Target level: 75.0 dB
* Note: 
* Measurement: B2Y L
* Smoothing: None
* Frequency Step: 1/48 octave
* Start Frequency: 20.000 Hz
*
* Freq(Hz)	SPL(dB)	Phase(degrees)
20.000000	95.826	-175.6306
20.299999	95.835	-175.8080
20.600000	95.847	-176.0161
20.900000	95.859	-176.2559
21.200001	95.866	-176.5263
21.400000	95.869	-176.7064
21.799999	95.868	-177.0391
22.000000	95.867	-177.1869
22.400000	95.864	-177.4593
22.700001	95.864	-177.6445
23.000000	95.865	-177.8268
23.299999	95.866	-178.0145
23.600000	95.867	-178.1953
24.000000	95.868	-178.4165
24.299999	95.872	-178.5741
24.700001	95.880	-178.7877
25.000000	95.888	-178.9659
25.400000	95.897	-179.2409
25.799999	95.899	-179.5233
26.200001	95.894	-179.7754
26.500000	95.890	-179.9303
26.900000	95.887	179.9065
27.200001	95.886	179.7862
27.600000	95.891	179.5938
28.000000	95.895	179.3608
28.500000	95.890	179.0497
29.000000	95.878	178.7922
29.500000	95.870	178.5852
30.000000	95.868	178.3801
30.400000	95.869	178.1858
30.700001	95.868	178.0330
31.100000	95.865	177.8360
31.500000	95.860	177.6531
32.000000	95.855	177.4382
32.500000	95.851	177.2137
33.000000	95.843	176.9933
33.500000	95.831	176.7964
34.000000	95.824	176.6270
34.500000	95.825	176.4463
35.000000	95.826	176.2443
35.500000	95.825	176.0382
36.000000	95.822	175.8556
36.500000	95.821	175.6865
37.000000	95.821	175.5157
37.500000	95.819	175.3386
38.200001	95.813	175.1174
38.700001	95.806	174.9741
39.500000	95.797	174.7320
40.000000	95.790	174.5721
40.599998	95.781	174.3752
41.200001	95.770	174.1685
41.799999	95.756	173.9591
42.500000	95.738	173.7426
43.099998	95.727	173.5738
43.700001	95.719	173.3940
44.400002	95.711	173.1771
45.000000	95.704	172.9920
45.500000	95.699	172.8279
46.200001	95.686	172.6089
46.799999	95.673	172.4725
47.500000	95.664	172.3490
48.200001	95.658	172.1978
48.700001	95.651	172.0907
49.400002	95.642	171.9800
50.000000	95.642	171.8602
50.799999	95.635	171.6049
51.500000	95.616	171.4097
52.200001	95.604	171.2612
53.000000	95.596	171.0010
53.799999	95.567	170.7325
54.500000	95.542	170.6115
55.200001	95.530	170.5038
56.000000	95.519	170.3116
57.000000	95.497	170.0700
58.000000	95.475	169.8738
59.000000	95.453	169.6412
60.000000	95.410	169.4517
60.799999	95.392	169.4203
61.500000	95.393	169.3079
62.200001	95.385	169.0987
63.000000	95.363	168.9200
64.000000	95.345	168.7249
65.000000	95.322	168.5508
66.000000	95.314	168.4168
67.000000	95.301	168.1604
68.000000	95.273	167.9760
69.000000	95.248	167.8116
70.000000	95.224	167.6911
71.000000	95.207	167.5192
72.000000	95.181	167.3452
73.000000	95.161	167.2005
74.000000	95.138	167.0483
75.000000	95.121	166.9289
76.199997	95.101	166.7317
77.500000	95.071	166.5364
78.800003	95.043	166.3910
80.000000	95.024	166.2258
81.199997	94.996	166.0296
82.500000	94.974	165.8910
83.800003	94.947	165.6582
85.000000	94.922	165.5723
86.199997	94.904	165.3677
87.500000	94.867	165.2404
88.500000	94.851	165.1378
90.000000	94.815	164.9629
91.199997	94.795	164.8369
92.500000	94.769	164.6603
93.800003	94.741	164.5207
95.000000	94.716	164.3874
96.199997	94.689	164.2852
97.500000	94.669	164.1714
98.800003	94.641	164.0237
100.000000	94.615	163.9106
101.500000	94.580	163.7687
103.000000	94.549	163.6323
104.400002	94.521	163.5242
106.000000	94.490	163.3806
107.500000	94.459	163.2506
109.000000	94.430	163.1367
110.599998	94.394	163.0134
112.000000	94.369	162.9147
113.800003	94.329	162.7687
115.000000	94.303	162.6873
117.199997	94.261	162.5291
118.000000	94.243	162.4747
120.599998	94.192	162.3379
122.000000	94.169	162.2267
124.099998	94.131	162.1093
125.000000	94.110	162.0278
126.500000	94.082	161.9913
128.000000	94.055	161.8835
131.500000	93.991	161.6916
132.000000	93.981	161.6643
134.000000	93.944	161.5936
136.000000	93.911	161.5153
138.000000	93.870	161.4026
140.000000	93.835	161.3240
143.000000	93.782	161.1992
145.000000	93.745	161.1088
147.500000	93.705	161.0511
150.000000	93.662	160.9857
152.500000	93.609	160.8739
155.000000	93.565	160.7715
157.500000	93.510	160.7100
160.000000	93.472	160.6830
162.500000	93.421	160.6067
165.000000	93.372	160.5301
167.500000	93.328	160.4655
170.000000	93.285	160.4521
172.500000	93.247	160.4300
175.000000	93.205	160.3456
177.500000	93.170	160.2879
180.000000	93.132	160.3040
182.500000	93.092	160.2505
185.000000	93.052	160.2077
187.500000	93.021	160.2054
190.000000	92.977	160.0980
192.500000	92.946	160.1037
195.000000	92.915	160.0719
197.500000	92.880	160.0762
200.000000	92.853	160.0592
203.000000	92.812	160.0544
206.000000	92.776	160.0338
209.000000	92.738	160.0132
212.000000	92.702	160.0046
214.000000	92.679	159.9938
218.000000	92.621	160.0256
220.000000	92.597	160.0060
224.000000	92.546	159.9955
227.000000	92.507	160.0144
230.000000	92.466	160.0043
233.000000	92.430	159.9897
236.000000	92.397	160.0225
240.000000	92.339	160.0814
243.000000	92.307	160.0290
247.000000	92.267	160.0679
250.000000	92.227	160.1001
254.000000	92.183	160.1317
258.000000	92.139	160.1478
262.000000	92.109	160.1801
265.000000	92.062	160.2437
269.000000	92.021	160.2466
272.000000	91.989	160.2825
276.000000	91.944	160.3578
280.000000	91.894	160.4521
285.000000	91.844	160.5294
290.000000	91.783	160.6129
295.000000	91.735	160.7309
300.000000	91.684	160.8965
304.000000	91.650	161.0441
307.000000	91.620	161.1220
311.000000	91.590	161.2533
315.000000	91.568	161.3780
320.000000	91.544	161.4620
325.000000	91.514	161.4814
330.000000	91.485	161.4505
335.000000	91.440	161.4173
340.000000	91.394	161.4153
345.000000	91.357	161.4269
350.000000	91.308	161.4605
355.000000	91.266	161.5213
360.000000	91.220	161.5773
365.000000	91.176	161.6451
370.000000	91.135	161.7090
375.000000	91.094	161.7626
382.000000	91.029	161.8954
387.000000	90.988	161.9955
395.000000	90.924	162.1434
400.000000	90.880	162.2348
406.000000	90.828	162.3267
412.000000	90.783	162.4747
418.000000	90.735	162.5810
425.000000	90.679	162.7235
431.000000	90.628	162.8770
437.000000	90.583	163.0010
444.000000	90.529	163.1691
450.000000	90.486	163.3144
455.000000	90.445	163.4240
462.000000	90.391	163.5932
468.000000	90.349	163.7581
475.000000	90.295	163.9286
482.000000	90.249	164.1164
487.000000	90.211	164.2241
494.000000	90.168	164.4093
500.000000	90.131	164.5673
508.000000	90.079	164.7701
515.000000	90.031	164.9701
522.000000	89.988	165.1591
530.000000	89.935	165.3807
538.000000	89.883	165.5995
545.000000	89.837	165.8098
552.000000	89.795	166.0230
560.000000	89.741	166.2777
570.000000	89.681	166.5977
580.000000	89.622	166.9156
590.000000	89.564	167.2544
600.000000	89.504	167.6259
608.000000	89.455	167.9181
615.000000	89.413	168.1790
622.000000	89.373	168.4320
630.000000	89.328	168.7420
640.000000	89.271	169.1260
650.000000	89.213	169.5406
660.000000	89.162	169.9529
670.000000	89.109	170.3637
680.000000	89.063	170.8081
690.000000	89.009	171.2245
700.000000	88.956	171.6681
710.000000	88.911	172.1118
720.000000	88.868	172.5677
730.000000	88.825	173.0053
740.000000	88.782	173.4818
750.000000	88.751	173.9482
762.000000	88.706	174.5664
775.000000	88.661	175.1339
788.000000	88.617	175.8021
800.000000	88.583	176.3896
812.000000	88.551	176.9549
825.000000	88.521	177.6017
838.000000	88.499	178.2213
850.000000	88.481	178.8260
862.000000	88.465	179.3770
875.000000	88.453	179.9581
885.000000	88.450	-179.5862
900.000000	88.446	-178.9147
912.000000	88.444	-178.4104
925.000000	88.449	-177.8339
938.000000	88.455	-177.3260
950.000000	88.466	-176.8459
962.000000	88.481	-176.4012
975.000000	88.497	-175.9703
988.000000	88.521	-175.5417
1000.000000	88.535	-175.2518
1015.000000	88.563	-174.7728
1030.000000	88.592	-174.3747
1044.000000	88.612	-174.0019
1060.000000	88.642	-173.6178
1075.000000	88.664	-173.2752
1090.000000	88.673	-172.9404
1106.000000	88.688	-172.6312
1120.000000	88.689	-172.3468
1138.000000	88.700	-172.0000
1150.000000	88.700	-171.7467
1172.000000	88.714	-171.3714
1180.000000	88.712	-171.2603
1206.000000	88.721	-170.8426
1220.000000	88.743	-170.6079
1241.000000	88.808	-170.2976
1250.000000	88.833	-170.1927
1265.000000	88.874	-169.9933
1280.000000	88.915	-169.8419
1315.000000	88.997	-169.4927
1320.000000	89.009	-169.4403
1340.000000	89.048	-169.2901
1360.000000	89.135	-169.1120
1380.000000	89.177	-169.0304
1400.000000	89.209	-168.8968
1430.000000	89.250	-168.7198
1450.000000	89.275	-168.5661
1475.000000	89.295	-168.4046
1500.000000	89.315	-168.1621
1525.000000	89.324	-167.8906
1550.000000	89.308	-167.6516
1575.000000	89.293	-167.3358
1600.000000	89.270	-166.9821
1625.000000	89.248	-166.6035
1650.000000	89.227	-166.2019
1675.000000	89.206	-165.7798
1700.000000	89.190	-165.3324
1725.000000	89.171	-164.8606
1750.000000	89.160	-164.3950
1775.000000	89.148	-163.8493
1800.000000	89.137	-163.3392
1825.000000	89.132	-162.7980
1850.000000	89.122	-162.2194
1875.000000	89.131	-161.6995
1900.000000	89.125	-161.0531
1925.000000	89.131	-160.5118
1950.000000	89.141	-159.9155
1975.000000	89.146	-159.3112
2000.000000	89.158	-158.5995
2030.000000	89.175	-157.9593
2060.000000	89.195	-157.2319
2090.000000	89.221	-156.4796
2120.000000	89.254	-155.7692
2140.000000	89.277	-155.2941
2180.000000	89.329	-154.2969
2200.000000	89.354	-153.8489
2240.000000	89.422	-152.8777
2270.000000	89.471	-152.1847
2300.000000	89.523	-151.5220
2330.000000	89.589	-150.8170
2360.000000	89.657	-150.1791
2400.000000	89.747	-149.3442
2430.000000	89.821	-148.7241
2470.000000	89.929	-147.9653
2500.000000	90.011	-147.4232
2540.000000	90.132	-146.7342
2580.000000	90.258	-146.0633
2620.000000	90.387	-145.5010
2650.000000	90.482	-145.0886
2690.000000	90.626	-144.6198
2720.000000	90.732	-144.2827
2760.000000	90.877	-143.9725
2800.000000	91.025	-143.6878
2850.000000	91.213	-143.4934
2900.000000	91.401	-143.3999
2950.000000	91.588	-143.4799
3000.000000	91.755	-143.6704
3040.000000	91.910	-144.0074
3070.000000	92.001	-144.2627
3110.000000	92.128	-144.7694
3150.000000	92.239	-145.3224
3200.000000	92.358	-146.1315
3250.000000	92.459	-147.0833
3300.000000	92.529	-148.1169
3350.000000	92.566	-149.2383
3400.000000	92.570	-150.3730
3450.000000	92.548	-151.5942
3500.000000	92.483	-152.7409
3550.000000	92.384	-153.8598
3600.000000	92.255	-154.8204
3650.000000	92.091	-155.6564
3700.000000	91.907	-156.3256
3750.000000	91.692	-156.7885
3820.000000	91.382	-157.1068
3870.000000	91.145	-157.0747
3950.000000	90.755	-156.5010
4000.000000	90.510	-155.9937
4060.000000	90.246	-154.8572
4120.000000	90.002	-153.5155
4180.000000	89.788	-151.9865
4250.000000	89.563	-149.9994
4310.000000	89.412	-148.0554
4370.000000	89.289	-146.0257
4440.000000	89.188	-143.4860
4500.000000	89.151	-141.2365
4550.000000	89.139	-139.3552
4620.000000	89.174	-136.6316
4680.000000	89.245	-134.4263
4750.000000	89.377	-131.8971
4820.000000	89.541	-129.5586
4870.000000	89.683	-127.9923
4940.000000	89.893	-125.8901
5000.000000	90.114	-124.1995
5080.000000	90.386	-122.1514
5150.000000	90.673	-120.4287
5220.000000	91.005	-118.7826
5300.000000	91.442	-117.0312
5380.000000	91.967	-115.7162
5450.000000	92.511	-114.9966
5520.000000	93.109	-114.9872
5600.000000	93.852	-116.2918
5700.000000	94.748	-120.4830
5800.000000	95.335	-127.5492
5900.000000	95.321	-136.0060
6000.000000	94.691	-143.0588
6080.000000	93.938	-146.7326
6150.000000	93.201	-148.3426
6220.000000	92.496	-148.6548
6300.000000	91.739	-147.8043
6400.000000	90.943	-145.4649
6500.000000	90.304	-142.1447
6600.000000	89.840	-138.1944
6700.000000	89.527	-133.9309
6800.000000	89.358	-129.5077
6900.000000	89.369	-125.0522
7000.000000	89.541	-120.5700
7100.000000	89.828	-116.5951
7200.000000	90.244	-112.8506
7300.000000	90.766	-109.4136
7400.000000	91.395	-106.7298
7500.000000	92.147	-104.7670
7620.000000	93.144	-103.8268
7750.000000	94.421	-105.0374
7880.000000	95.501	-108.9234
8000.000000	96.300	-115.8681
8120.000000	96.626	-124.7524
8250.000000	96.320	-134.7690
8380.000000	95.461	-142.6166
8500.000000	94.431	-147.1617
8620.000000	93.361	-149.3903
8750.000000	92.262	-149.5302
8850.000000	91.589	-148.3687
9000.000000	90.958	-147.0480
9120.000000	90.428	-147.3108
9250.000000	89.776	-147.5197
9380.000000	89.073	-147.4959
9500.000000	88.374	-147.2349
9620.000000	87.626	-146.6669
9750.000000	86.786	-145.1617
9880.000000	85.972	-143.0788
10000.000000	85.301	-140.4016
10150.000000	84.396	-136.5547
10300.000000	83.637	-132.0200
10440.000000	83.003	-127.5414
10600.000000	82.414	-121.8458
10750.000000	81.940	-116.4045
10900.000000	81.605	-110.9943
11060.000000	81.316	-105.3417
11200.000000	81.143	-100.5646
11380.000000	81.037	-94.8798
11500.000000	80.991	-91.0372
11720.000000	80.937	-84.9666
11800.000000	80.898	-82.9067
12060.000000	80.852	-75.9677
12200.000000	80.892	-72.3238
12410.000000	81.039	-67.2419
12500.000000	81.115	-65.2704
12650.000000	81.192	-62.0190
12800.000000	81.311	-58.8372
13150.000000	81.523	-51.0150
13200.000000	81.551	-50.0194
13400.000000	81.712	-45.4389
13600.000000	81.958	-40.6987
13800.000000	82.339	-36.0041
14000.000000	82.801	-30.9258
14300.000000	83.663	-25.1373
14500.000000	84.379	-21.5280
14750.000000	85.500	-17.5377
15000.000000	86.916	-16.0080
15250.000000	88.560	-18.1403
15500.000000	89.817	-26.3386
15750.000000	90.125	-38.1393
16000.000000	89.358	-48.4462
16250.000000	88.138	-53.0509
16500.000000	86.956	-53.3123
16750.000000	86.086	-50.5427
17000.000000	85.514	-47.2381
17250.000000	85.277	-42.4109
17500.000000	85.316	-38.3326
17750.000000	85.558	-34.9163
18000.000000	85.984	-32.4291
18250.000000	86.559	-31.8354
18500.000000	87.326	-32.7861
18750.000000	87.967	-36.2610
19000.000000	88.414	-41.0736
19250.000000	88.838	-46.6832
19500.000000	89.239	-53.5538
19750.000000	89.443	-62.6631
