* Measurement data measured by REW V5.20.4
* Source: Microphone (2- KM-HIFI-384KHZ), MICROPHONE (Master Volume), L, volume: 0.250
* Format: 256k Log Swept Sine, 1 sweep at -6.0 dBFS with no timing reference
* Dated: 15 Feb, 2022 5:01:40 PM
* REW Settings:
*  C-weighting compensation: Off
*  Target level: 75.0 dB
* Note: 
* Measurement: Biento L
* Smoothing: None
* Frequency Step: 1/48 octave
* Start Frequency: 20.000 Hz
*
* Freq(Hz)	SPL(dB)	Phase(degrees)
20.000000	96.396	-25.8110
20.299999	96.334	-26.0617
20.600000	96.282	-26.2581
20.900000	96.240	-26.4312
21.200001	96.208	-26.6279
21.400000	96.191	-26.7812
21.799999	96.158	-27.1368
22.000000	96.140	-27.3367
22.400000	96.096	-27.7698
22.700001	96.056	-28.0834
23.000000	96.010	-28.3627
23.299999	95.962	-28.6040
23.600000	95.915	-28.8043
24.000000	95.857	-29.0307
24.299999	95.818	-29.2004
24.700001	95.766	-29.4426
25.000000	95.725	-29.6296
25.400000	95.664	-29.8663
25.799999	95.602	-30.0530
26.200001	95.544	-30.2069
26.500000	95.503	-30.3264
26.900000	95.449	-30.5063
27.200001	95.403	-30.6572
27.600000	95.338	-30.8483
28.000000	95.271	-30.9834
28.500000	95.199	-31.0970
29.000000	95.144	-31.2615
29.500000	95.088	-31.5717
30.000000	95.010	-31.9447
30.400000	94.933	-32.1776
30.700001	94.872	-32.2679
31.100000	94.798	-32.2880
31.500000	94.740	-32.2602
32.000000	94.688	-32.2789
32.500000	94.642	-32.4359
33.000000	94.583	-32.6817
33.500000	94.503	-32.9173
34.000000	94.418	-33.0615
34.500000	94.343	-33.1341
35.000000	94.279	-33.1972
35.500000	94.220	-33.3023
36.000000	94.158	-33.4248
36.500000	94.093	-33.5227
37.000000	94.032	-33.5837
37.500000	93.978	-33.6476
38.200001	93.901	-33.7717
38.700001	93.838	-33.8548
39.500000	93.733	-33.8914
40.000000	93.673	-33.8615
40.599998	93.607	-33.8154
41.200001	93.546	-33.7942
41.799999	93.483	-33.8066
42.500000	93.401	-33.8183
43.099998	93.328	-33.7867
43.700001	93.260	-33.7303
44.400002	93.189	-33.6848
45.000000	93.132	-33.7132
45.500000	93.078	-33.7943
46.200001	92.982	-33.8765
46.799999	92.894	-33.7620
47.500000	92.831	-33.4839
48.200001	92.808	-33.4430
48.700001	92.779	-33.6297
49.400002	92.687	-33.8717
50.000000	92.592	-33.7966
50.799999	92.508	-33.4764
51.500000	92.460	-33.3455
52.200001	92.396	-33.2772
53.000000	92.321	-33.0367
53.799999	92.277	-32.8320
54.500000	92.230	-32.8218
55.200001	92.162	-32.7743
56.000000	92.093	-32.6085
57.000000	92.017	-32.5280
58.000000	91.917	-32.4105
59.000000	91.828	-32.1665
60.000000	91.749	-31.9149
60.799999	91.707	-31.7530
61.500000	91.670	-31.7471
62.200001	91.610	-31.7605
63.000000	91.530	-31.5575
64.000000	91.480	-31.1855
65.000000	91.435	-31.1239
66.000000	91.357	-30.9362
67.000000	91.310	-30.7409
68.000000	91.227	-30.6788
69.000000	91.159	-30.3065
70.000000	91.125	-30.2490
71.000000	91.039	-30.1817
72.000000	90.982	-29.9102
73.000000	90.926	-29.7644
74.000000	90.880	-29.4979
75.000000	90.833	-29.4451
76.199997	90.746	-29.0393
77.500000	90.712	-28.8625
78.800003	90.599	-28.5446
80.000000	90.570	-28.1763
81.199997	90.500	-28.1058
82.500000	90.436	-27.7623
83.800003	90.390	-27.5306
85.000000	90.333	-27.4146
86.199997	90.264	-26.9554
87.500000	90.264	-26.7448
88.500000	90.203	-26.7152
90.000000	90.131	-26.3511
91.199997	90.086	-25.9876
92.500000	90.054	-25.8668
93.800003	89.995	-25.5112
95.000000	89.965	-25.3410
96.199997	89.921	-25.0479
97.500000	89.884	-24.8669
98.800003	89.837	-24.5064
100.000000	89.820	-24.3286
101.500000	89.748	-24.1887
103.000000	89.707	-23.7061
104.400002	89.667	-23.6190
106.000000	89.628	-23.2025
107.500000	89.584	-23.0479
109.000000	89.554	-22.7260
110.599998	89.506	-22.4474
112.000000	89.461	-22.1618
113.800003	89.418	-21.8827
115.000000	89.379	-21.6603
117.199997	89.340	-21.1671
118.000000	89.345	-21.2297
120.599998	89.261	-20.8503
122.000000	89.223	-20.4831
124.099998	89.188	-20.0002
125.000000	89.168	-19.8080
126.500000	89.148	-19.3721
128.000000	89.112	-19.1071
131.500000	89.047	-18.4577
132.000000	89.051	-18.4369
134.000000	89.005	-18.2501
136.000000	88.918	-17.7206
138.000000	88.959	-17.5763
140.000000	88.914	-17.0230
143.000000	88.890	-16.4997
145.000000	88.863	-16.3934
147.500000	88.847	-16.1677
150.000000	88.827	-15.6108
152.500000	88.779	-15.3620
155.000000	88.700	-15.1791
157.500000	88.628	-15.2243
160.000000	88.705	-15.0120
162.500000	88.640	-14.0866
165.000000	88.631	-13.8269
167.500000	88.601	-13.4422
170.000000	88.573	-13.0574
172.500000	88.559	-12.8207
175.000000	88.498	-12.5264
177.500000	88.494	-12.2398
180.000000	88.499	-11.8917
182.500000	88.454	-11.4768
185.000000	88.445	-11.2142
187.500000	88.408	-11.0846
190.000000	88.378	-10.8237
192.500000	88.377	-10.4004
195.000000	88.353	-10.3218
197.500000	88.339	-9.6687
200.000000	88.302	-9.1516
203.000000	88.296	-9.3824
206.000000	88.244	-8.4994
209.000000	88.254	-7.8222
212.000000	88.275	-6.6663
214.000000	88.288	-7.0267
218.000000	88.440	-6.0683
220.000000	88.388	-5.6865
224.000000	88.510	-6.4306
227.000000	88.492	-6.2960
230.000000	88.495	-6.7140
233.000000	88.433	-6.4275
236.000000	88.357	-5.8173
240.000000	88.401	-5.6242
243.000000	88.366	-5.4307
247.000000	88.344	-5.5021
250.000000	88.305	-4.9679
254.000000	88.307	-5.0790
258.000000	88.244	-4.7605
262.000000	88.235	-4.1170
265.000000	88.225	-4.0135
269.000000	88.220	-3.6926
272.000000	88.210	-3.5227
276.000000	88.217	-3.3310
280.000000	88.211	-3.0889
285.000000	88.163	-2.2805
290.000000	88.153	-1.9520
295.000000	88.120	-1.5931
300.000000	88.141	-1.0874
304.000000	88.109	-0.8533
307.000000	88.118	-0.6935
311.000000	88.097	-0.3130
315.000000	88.071	-0.0837
320.000000	88.084	0.3113
325.000000	88.066	0.6257
330.000000	88.042	0.9890
335.000000	88.058	1.2637
340.000000	88.021	1.6382
345.000000	88.021	2.0272
350.000000	88.022	2.3194
355.000000	88.020	2.6090
360.000000	88.004	3.0070
365.000000	88.005	3.3125
370.000000	87.986	3.6555
375.000000	87.982	3.9895
382.000000	87.972	4.4317
387.000000	87.971	4.7623
395.000000	87.961	5.2616
400.000000	87.951	5.5434
406.000000	87.948	5.9067
412.000000	87.943	6.3168
418.000000	87.938	6.6526
425.000000	87.918	7.0830
431.000000	87.916	7.4926
437.000000	87.903	7.7949
444.000000	87.891	8.3129
450.000000	87.892	8.6283
455.000000	87.881	8.8780
462.000000	87.871	9.3329
468.000000	87.871	9.6462
475.000000	87.864	10.0561
482.000000	87.857	10.4679
487.000000	87.849	10.7734
494.000000	87.831	11.2140
500.000000	87.822	11.6071
508.000000	87.830	11.9557
515.000000	87.828	12.5667
522.000000	87.810	12.8860
530.000000	87.814	13.3427
538.000000	87.815	13.7754
545.000000	87.812	14.2614
552.000000	87.803	14.6628
560.000000	87.815	15.0770
570.000000	87.802	15.7075
580.000000	87.798	16.2623
590.000000	87.795	16.8750
600.000000	87.795	17.4729
608.000000	87.791	17.8670
615.000000	87.785	18.2793
622.000000	87.781	18.6448
630.000000	87.777	19.1250
640.000000	87.732	19.7594
650.000000	87.749	20.3523
660.000000	87.721	20.9656
670.000000	87.722	21.7973
680.000000	87.721	22.4537
690.000000	87.725	23.1837
700.000000	87.735	23.9007
710.000000	87.751	24.4620
720.000000	87.754	25.0822
730.000000	87.773	25.7448
740.000000	87.785	26.3084
750.000000	87.788	26.9025
762.000000	87.797	27.6188
775.000000	87.816	28.4652
788.000000	87.818	29.2010
800.000000	87.825	29.9765
812.000000	87.839	30.7014
825.000000	87.844	31.5071
838.000000	87.856	32.2880
850.000000	87.863	33.1003
862.000000	87.872	33.8852
875.000000	87.879	34.7520
885.000000	87.885	35.4543
900.000000	87.904	36.5555
912.000000	87.913	37.4596
925.000000	87.950	38.5078
938.000000	87.995	39.5795
950.000000	88.035	40.5151
962.000000	88.097	41.4691
975.000000	88.173	42.5246
988.000000	88.265	43.4974
1000.000000	88.361	44.3438
1015.000000	88.486	45.3366
1030.000000	88.623	46.1694
1044.000000	88.740	46.8847
1060.000000	88.878	47.6045
1075.000000	89.008	48.1738
1090.000000	89.119	48.6817
1106.000000	89.229	49.2077
1120.000000	89.328	49.5781
1138.000000	89.437	50.0333
1150.000000	89.513	50.2861
1172.000000	89.640	50.7654
1180.000000	89.678	50.9232
1206.000000	89.809	51.4119
1220.000000	89.895	51.6565
1241.000000	90.042	52.0368
1250.000000	90.098	52.1902
1265.000000	90.193	52.4368
1280.000000	90.285	52.6974
1315.000000	90.492	53.3010
1320.000000	90.516	53.3967
1340.000000	90.627	53.7524
1360.000000	90.773	54.1198
1380.000000	90.888	54.4587
1400.000000	90.996	54.8337
1430.000000	91.153	55.3979
1450.000000	91.262	55.7823
1475.000000	91.389	56.2898
1500.000000	91.522	56.7843
1525.000000	91.651	57.3004
1550.000000	91.748	57.8046
1575.000000	91.849	58.3124
1600.000000	91.955	58.8308
1625.000000	92.056	59.3458
1650.000000	92.161	59.8470
1675.000000	92.265	60.3632
1700.000000	92.372	60.8658
1725.000000	92.480	61.3410
1750.000000	92.592	61.8117
1775.000000	92.711	62.2599
1800.000000	92.830	62.6817
1825.000000	92.950	63.0945
1850.000000	93.066	63.4861
1875.000000	93.188	63.8398
1900.000000	93.304	64.1874
1925.000000	93.426	64.4677
1950.000000	93.543	64.7457
1975.000000	93.662	65.0022
2000.000000	93.779	65.2434
2030.000000	93.923	65.4617
2060.000000	94.061	65.6643
2090.000000	94.197	65.8155
2120.000000	94.333	65.9513
2140.000000	94.420	66.0176
2180.000000	94.597	66.1097
2200.000000	94.684	66.1434
2240.000000	94.853	66.1443
2270.000000	94.975	66.1443
2300.000000	95.094	66.0930
2330.000000	95.209	66.0373
2360.000000	95.325	65.9610
2400.000000	95.478	65.8031
2430.000000	95.598	65.6391
2470.000000	95.751	65.3646
2500.000000	95.858	65.1040
2540.000000	96.003	64.6986
2580.000000	96.137	64.2071
2620.000000	96.257	63.6653
2650.000000	96.344	63.2117
2690.000000	96.447	62.5461
2720.000000	96.512	62.0264
2760.000000	96.593	61.2726
2800.000000	96.657	60.4932
2850.000000	96.717	59.4543
2900.000000	96.754	58.3502
2950.000000	96.764	57.2059
3000.000000	96.739	56.0696
3040.000000	96.692	55.1268
3070.000000	96.643	54.4702
3110.000000	96.555	53.6063
3150.000000	96.446	52.8418
3200.000000	96.283	52.0479
3250.000000	96.098	51.4311
3300.000000	95.893	51.0674
3350.000000	95.683	50.8945
3400.000000	95.471	50.9458
3450.000000	95.264	51.1652
3500.000000	95.070	51.5846
3550.000000	94.883	52.1627
3600.000000	94.712	52.8670
3650.000000	94.560	53.6847
3700.000000	94.423	54.5985
3750.000000	94.315	55.5760
3820.000000	94.195	56.9834
3870.000000	94.133	58.0112
3950.000000	94.080	59.5398
4000.000000	94.065	60.4414
4060.000000	94.066	61.4868
4120.000000	94.086	62.3862
4180.000000	94.112	63.2085
4250.000000	94.163	63.9826
4310.000000	94.210	64.5481
4370.000000	94.265	64.9767
4440.000000	94.328	65.3485
4500.000000	94.382	65.5110
4550.000000	94.415	65.6031
4620.000000	94.446	65.5601
4680.000000	94.458	65.4224
4750.000000	94.443	65.1636
4820.000000	94.386	64.9202
4870.000000	94.320	64.7901
4940.000000	94.201	64.7365
5000.000000	94.077	64.8208
5080.000000	93.902	65.2318
5150.000000	93.744	65.8155
5220.000000	93.601	66.6863
5300.000000	93.464	67.8679
5380.000000	93.376	69.1694
5450.000000	93.322	70.3508
5520.000000	93.284	71.4790
5600.000000	93.266	72.7706
5700.000000	93.280	74.2281
5800.000000	93.324	75.6057
5900.000000	93.395	76.8885
6000.000000	93.512	78.1283
6080.000000	93.653	78.9062
6150.000000	93.790	79.4426
6220.000000	93.937	79.7395
6300.000000	94.114	79.8696
6400.000000	94.349	79.8446
6500.000000	94.596	79.4539
6600.000000	94.840	78.7561
6700.000000	95.070	77.7693
6800.000000	95.279	76.5084
6900.000000	95.502	75.1629
7000.000000	95.755	73.7121
7100.000000	95.991	72.2839
7200.000000	96.238	70.8210
7300.000000	96.484	69.5089
7400.000000	96.809	68.3825
7500.000000	97.210	66.8783
7620.000000	97.760	64.5346
7750.000000	98.550	61.0693
7880.000000	99.223	56.1441
8000.000000	99.840	49.7507
8120.000000	100.301	41.3374
8250.000000	100.462	30.6103
8380.000000	100.185	19.6788
8500.000000	99.631	10.5653
8620.000000	98.945	2.6760
8750.000000	98.137	-5.0360
8850.000000	97.503	-10.9888
9000.000000	96.391	-20.5906
9120.000000	95.187	-28.6471
9250.000000	93.475	-36.4301
9380.000000	91.323	-41.9549
9500.000000	89.185	-42.8993
9620.000000	87.144	-41.2397
9750.000000	85.157	-36.8589
9880.000000	83.416	-30.5626
10000.000000	81.989	-23.3144
10150.000000	80.551	-12.7256
10300.000000	79.551	-0.7726
10440.000000	79.076	10.3882
10600.000000	78.988	22.2129
10750.000000	79.250	31.7197
10900.000000	79.709	39.3153
11060.000000	80.319	44.7038
11200.000000	80.784	47.6396
11380.000000	81.167	48.8833
11500.000000	81.201	49.2759
11720.000000	80.831	49.8752
11800.000000	80.585	50.4713
12060.000000	79.513	54.8707
12200.000000	78.933	58.6959
12410.000000	78.171	67.0696
12500.000000	77.905	71.2462
12650.000000	77.597	78.5269
12800.000000	77.462	86.6589
13150.000000	77.742	104.2962
13200.000000	77.789	106.4561
13400.000000	78.114	115.7758
13600.000000	78.594	124.6402
13800.000000	79.212	133.3961
14000.000000	79.995	141.7290
14300.000000	81.471	153.6091
14500.000000	82.704	160.1953
14750.000000	84.543	166.6889
15000.000000	86.648	169.3569
15250.000000	88.713	167.3667
15500.000000	90.383	160.4769
15750.000000	91.375	150.7756
16000.000000	91.528	140.6749
16250.000000	91.460	133.6041
16500.000000	91.490	124.7448
16750.000000	90.880	112.1370
17000.000000	89.014	100.5691
17250.000000	86.381	96.3483
17500.000000	83.729	99.5987
17750.000000	81.657	107.6464
18000.000000	80.277	118.2195
18250.000000	79.684	128.6672
18500.000000	79.656	137.0533
18750.000000	80.003	141.0821
19000.000000	80.405	139.2459
19250.000000	80.183	132.5004
19500.000000	78.792	124.1016
19750.000000	76.385	120.3328
