* Measurement data measured by REW V5.20.4
* Source: Microphone (2- KM-HIFI-384KHZ), MICROPHONE (Master Volume), R, volume: 0.250
* Format: 256k Log Swept Sine, 1 sweep at -6.0 dBFS with no timing reference
* Dated: 15 Feb, 2022 5:00:03 PM
* REW Settings:
*  C-weighting compensation: Off
*  Target level: 75.0 dB
* Note: 
* Measurement: Biento R
* Smoothing: None
* Frequency Step: 1/48 octave
* Start Frequency: 20.000 Hz
*
* Freq(Hz)	SPL(dB)	Phase(degrees)
20.000000	96.249	-13.8230
20.299999	96.218	-13.7397
20.600000	96.226	-13.5912
20.900000	96.278	-13.5487
21.200001	96.358	-13.8125
21.400000	96.410	-14.1976
21.799999	96.474	-15.3604
22.000000	96.472	-16.0424
22.400000	96.396	-17.3314
22.700001	96.295	-18.0100
23.000000	96.190	-18.3451
23.299999	96.112	-18.4339
23.600000	96.070	-18.4367
24.000000	96.066	-18.5762
24.299999	96.074	-18.8935
24.700001	96.062	-19.5180
25.000000	96.027	-19.9826
25.400000	95.962	-20.4249
25.799999	95.909	-20.6312
26.200001	95.889	-20.7794
26.500000	95.889	-20.9764
26.900000	95.886	-21.3965
27.200001	95.866	-21.7799
27.600000	95.815	-22.2506
28.000000	95.752	-22.5532
28.500000	95.687	-22.7247
29.000000	95.651	-22.8777
29.500000	95.624	-23.1754
30.000000	95.582	-23.5627
30.400000	95.536	-23.8505
30.700001	95.498	-24.0211
31.100000	95.450	-24.1974
31.500000	95.407	-24.3502
32.000000	95.362	-24.5554
32.500000	95.319	-24.8075
33.000000	95.273	-25.0909
33.500000	95.220	-25.3851
34.000000	95.166	-25.6634
34.500000	95.116	-25.9287
35.000000	95.065	-26.1795
35.500000	95.014	-26.4109
36.000000	94.962	-26.5962
36.500000	94.913	-26.7310
37.000000	94.873	-26.8419
37.500000	94.838	-26.9798
38.200001	94.785	-27.2292
38.700001	94.735	-27.4050
39.500000	94.650	-27.6071
40.000000	94.598	-27.6963
40.599998	94.541	-27.7815
41.200001	94.494	-27.8730
41.799999	94.455	-28.0733
42.500000	94.386	-28.4763
43.099998	94.292	-28.7258
43.700001	94.199	-28.6792
44.400002	94.147	-28.4982
45.000000	94.130	-28.5987
45.500000	94.096	-28.8294
46.200001	94.015	-29.0247
46.799999	93.959	-29.0235
47.500000	93.911	-29.1538
48.200001	93.828	-29.3711
48.700001	93.755	-29.3415
49.400002	93.691	-29.0691
50.000000	93.679	-29.0158
50.799999	93.633	-29.3351
51.500000	93.547	-29.4973
52.200001	93.475	-29.4391
53.000000	93.418	-29.4654
53.799999	93.347	-29.5441
54.500000	93.286	-29.5373
55.200001	93.232	-29.5682
56.000000	93.161	-29.6068
57.000000	93.083	-29.5590
58.000000	93.012	-29.5959
59.000000	92.931	-29.6094
60.000000	92.848	-29.5688
60.799999	92.792	-29.4894
61.500000	92.754	-29.4526
62.200001	92.710	-29.4780
63.000000	92.647	-29.4589
64.000000	92.577	-29.3173
65.000000	92.521	-29.2455
66.000000	92.450	-29.2170
67.000000	92.381	-29.0746
68.000000	92.327	-29.0227
69.000000	92.245	-29.0053
70.000000	92.181	-28.7574
71.000000	92.143	-28.7822
72.000000	92.057	-28.7880
73.000000	91.999	-28.5669
74.000000	91.952	-28.5212
75.000000	91.895	-28.4517
76.199997	91.827	-28.3475
77.500000	91.759	-28.1173
78.800003	91.700	-27.9854
80.000000	91.633	-27.8092
81.199997	91.574	-27.6556
82.500000	91.499	-27.4524
83.800003	91.449	-27.2685
85.000000	91.390	-27.1613
86.199997	91.341	-27.0245
87.500000	91.277	-26.8795
88.500000	91.238	-26.7165
90.000000	91.166	-26.5459
91.199997	91.119	-26.3060
92.500000	91.068	-26.1686
93.800003	91.019	-25.9698
95.000000	90.972	-25.8262
96.199997	90.928	-25.6385
97.500000	90.881	-25.4411
98.800003	90.825	-25.2257
100.000000	90.797	-24.9170
101.500000	90.749	-24.9330
103.000000	90.686	-24.6622
104.400002	90.629	-24.4157
106.000000	90.605	-24.1724
107.500000	90.540	-23.8895
109.000000	90.521	-23.7942
110.599998	90.444	-23.5036
112.000000	90.406	-23.4256
113.800003	90.364	-23.0882
115.000000	90.318	-22.9939
117.199997	90.276	-22.6758
118.000000	90.235	-22.4896
120.599998	90.174	-22.1537
122.000000	90.155	-21.8086
124.099998	90.092	-21.5886
125.000000	90.086	-21.4587
126.500000	90.045	-21.3465
128.000000	90.006	-20.9487
131.500000	89.947	-20.5056
132.000000	89.948	-20.4802
134.000000	89.885	-20.2091
136.000000	89.861	-20.0470
138.000000	89.816	-19.6214
140.000000	89.788	-19.3967
143.000000	89.739	-19.0225
145.000000	89.714	-18.7689
147.500000	89.666	-18.4882
150.000000	89.654	-18.1120
152.500000	89.598	-17.7593
155.000000	89.551	-17.4825
157.500000	89.511	-17.2027
160.000000	89.468	-16.8981
162.500000	89.442	-16.5877
165.000000	89.403	-16.2428
167.500000	89.366	-15.9537
170.000000	89.322	-15.6356
172.500000	89.297	-15.4050
175.000000	89.265	-15.1380
177.500000	89.251	-14.7899
180.000000	89.211	-14.5507
182.500000	89.182	-14.2846
185.000000	89.165	-14.0448
187.500000	89.143	-13.8159
190.000000	89.131	-13.5441
192.500000	89.115	-13.2003
195.000000	89.090	-12.8720
197.500000	89.064	-12.6783
200.000000	89.055	-12.4339
203.000000	89.043	-12.0855
206.000000	89.023	-11.7752
209.000000	89.001	-11.5182
212.000000	88.993	-11.2552
214.000000	88.982	-11.0032
218.000000	88.961	-10.6595
220.000000	88.952	-10.5069
224.000000	88.927	-10.1382
227.000000	88.908	-9.9196
230.000000	88.914	-9.6153
233.000000	88.870	-9.3493
236.000000	88.863	-9.1645
240.000000	88.853	-8.7971
243.000000	88.826	-8.5870
247.000000	88.824	-8.2793
250.000000	88.803	-7.8764
254.000000	88.793	-7.7674
258.000000	88.810	-7.4202
262.000000	88.789	-7.0316
265.000000	88.801	-6.8344
269.000000	88.766	-6.7134
272.000000	88.765	-6.4686
276.000000	88.783	-6.4414
280.000000	88.762	-6.1361
285.000000	88.725	-5.8847
290.000000	88.668	-6.2360
295.000000	88.643	-6.1540
300.000000	88.558	-5.9370
304.000000	88.427	-5.3270
307.000000	88.416	-4.8903
311.000000	88.432	-4.3355
315.000000	88.380	-4.0148
320.000000	88.376	-3.2086
325.000000	88.358	-2.8870
330.000000	88.367	-2.1991
335.000000	88.368	-2.0144
340.000000	88.346	-1.4502
345.000000	88.363	-1.2602
350.000000	88.345	-0.8988
355.000000	88.333	-0.4415
360.000000	88.339	-0.1422
365.000000	88.340	0.1001
370.000000	88.324	0.3367
375.000000	88.312	0.6662
382.000000	88.311	1.1453
387.000000	88.299	1.4515
395.000000	88.287	1.9326
400.000000	88.279	2.2162
406.000000	88.260	2.5395
412.000000	88.253	2.8934
418.000000	88.241	3.2593
425.000000	88.233	3.6419
431.000000	88.213	4.0069
437.000000	88.208	4.3467
444.000000	88.191	4.7097
450.000000	88.184	5.0473
455.000000	88.166	5.3055
462.000000	88.160	5.7082
468.000000	88.147	6.0410
475.000000	88.129	6.4564
482.000000	88.111	6.8106
487.000000	88.105	7.0883
494.000000	88.094	7.4503
500.000000	88.091	7.7732
508.000000	88.074	8.2395
515.000000	88.068	8.5973
522.000000	88.049	8.9844
530.000000	88.044	9.4012
538.000000	88.037	9.8110
545.000000	88.019	10.2227
552.000000	88.007	10.6081
560.000000	88.002	11.0844
570.000000	87.986	11.5710
580.000000	87.967	12.1384
590.000000	87.956	12.6958
600.000000	87.940	13.2331
608.000000	87.931	13.6840
615.000000	87.915	14.0565
622.000000	87.901	14.4424
630.000000	87.888	14.8858
640.000000	87.874	15.4173
650.000000	87.848	15.9990
660.000000	87.832	16.5467
670.000000	87.819	17.1260
680.000000	87.806	17.6593
690.000000	87.784	18.2101
700.000000	87.762	18.7472
710.000000	87.749	19.2941
720.000000	87.720	19.8989
730.000000	87.696	20.5309
740.000000	87.677	21.0589
750.000000	87.656	21.6873
762.000000	87.627	22.3763
775.000000	87.589	23.1535
788.000000	87.551	23.9414
800.000000	87.519	24.6836
812.000000	87.478	25.4889
825.000000	87.432	26.4336
838.000000	87.396	27.4195
850.000000	87.365	28.4212
862.000000	87.340	29.4883
875.000000	87.335	30.6377
885.000000	87.333	31.6324
900.000000	87.348	32.9843
912.000000	87.364	34.1020
925.000000	87.398	35.3050
938.000000	87.431	36.5182
950.000000	87.491	37.6106
962.000000	87.554	38.6627
975.000000	87.641	39.7616
988.000000	87.743	40.7645
1000.000000	87.834	41.6133
1015.000000	87.954	42.5689
1030.000000	88.078	43.3841
1044.000000	88.189	44.0869
1060.000000	88.316	44.7925
1075.000000	88.425	45.3769
1090.000000	88.516	45.9047
1106.000000	88.597	46.4131
1120.000000	88.667	46.8501
1138.000000	88.748	47.3709
1150.000000	88.799	47.7099
1172.000000	88.877	48.3778
1180.000000	88.906	48.6037
1206.000000	88.988	49.3676
1220.000000	89.051	49.8013
1241.000000	89.149	50.4253
1250.000000	89.199	50.7022
1265.000000	89.268	51.1692
1280.000000	89.334	51.6758
1315.000000	89.491	52.8485
1320.000000	89.515	53.0154
1340.000000	89.608	53.7159
1360.000000	89.745	54.4744
1380.000000	89.846	55.1648
1400.000000	89.947	55.9118
1430.000000	90.105	57.0855
1450.000000	90.211	57.8809
1475.000000	90.348	58.8471
1500.000000	90.497	59.8474
1525.000000	90.651	60.8607
1550.000000	90.776	61.7951
1575.000000	90.910	62.7302
1600.000000	91.057	63.6357
1625.000000	91.203	64.5315
1650.000000	91.359	65.3429
1675.000000	91.516	66.1407
1700.000000	91.678	66.8910
1725.000000	91.848	67.5927
1750.000000	92.016	68.2669
1775.000000	92.191	68.8681
1800.000000	92.363	69.4250
1825.000000	92.538	69.9287
1850.000000	92.710	70.3979
1875.000000	92.877	70.8299
1900.000000	93.050	71.2115
1925.000000	93.223	71.5354
1950.000000	93.386	71.8062
1975.000000	93.550	72.0657
2000.000000	93.711	72.2864
2030.000000	93.899	72.4819
2060.000000	94.088	72.6424
2090.000000	94.276	72.7300
2120.000000	94.460	72.7954
2140.000000	94.577	72.8200
2180.000000	94.809	72.7863
2200.000000	94.920	72.7400
2240.000000	95.143	72.6236
2270.000000	95.304	72.4806
2300.000000	95.460	72.3158
2330.000000	95.614	72.0600
2360.000000	95.760	71.7979
2400.000000	95.946	71.4137
2430.000000	96.080	71.0682
2470.000000	96.253	70.5933
2500.000000	96.374	70.1837
2540.000000	96.529	69.5835
2580.000000	96.669	68.9646
2620.000000	96.799	68.3003
2650.000000	96.886	67.7781
2690.000000	96.997	67.0510
2720.000000	97.074	66.4858
2760.000000	97.166	65.7087
2800.000000	97.248	64.8845
2850.000000	97.330	63.8521
2900.000000	97.388	62.7724
2950.000000	97.430	61.6666
3000.000000	97.450	60.5503
3040.000000	97.450	59.6871
3070.000000	97.440	59.0231
3110.000000	97.412	58.1351
3150.000000	97.362	57.2400
3200.000000	97.275	56.1682
3250.000000	97.157	55.2096
3300.000000	97.012	54.3852
3350.000000	96.844	53.7903
3400.000000	96.662	53.4424
3450.000000	96.488	53.3029
3500.000000	96.318	53.3434
3550.000000	96.162	53.4956
3600.000000	96.022	53.7503
3650.000000	95.897	54.0704
3700.000000	95.787	54.4133
3750.000000	95.689	54.8149
3820.000000	95.571	55.3608
3870.000000	95.505	55.6601
3950.000000	95.417	56.0713
4000.000000	95.370	56.2328
4060.000000	95.309	56.3045
4120.000000	95.243	56.3540
4180.000000	95.172	56.3259
4250.000000	95.078	56.2190
4310.000000	94.984	56.1349
4370.000000	94.881	55.9963
4440.000000	94.741	55.8506
4500.000000	94.601	55.7385
4550.000000	94.472	55.6856
4620.000000	94.266	55.6642
4680.000000	94.068	55.7600
4750.000000	93.815	56.0464
4820.000000	93.547	56.5861
4870.000000	93.342	57.1080
4940.000000	93.049	58.1250
5000.000000	92.801	59.2122
5080.000000	92.493	61.0342
5150.000000	92.254	62.9280
5220.000000	92.051	65.0016
5300.000000	91.866	67.6170
5380.000000	91.742	70.3298
5450.000000	91.690	72.7529
5520.000000	91.658	75.1719
5600.000000	91.685	77.8401
5700.000000	91.793	80.9894
5800.000000	91.969	83.8007
5900.000000	92.202	86.2413
6000.000000	92.482	88.3142
6080.000000	92.727	89.6481
6150.000000	92.965	90.6851
6220.000000	93.224	91.4842
6300.000000	93.516	92.2231
6400.000000	93.924	92.8675
6500.000000	94.379	93.1149
6600.000000	94.891	92.8085
6700.000000	95.413	91.5540
6800.000000	95.914	89.4750
6900.000000	96.380	86.5766
7000.000000	96.782	83.1031
7100.000000	97.065	79.3173
7200.000000	97.202	75.4836
7300.000000	97.328	72.2359
7400.000000	97.312	67.9410
7500.000000	96.906	64.9862
7620.000000	96.670	66.5783
7750.000000	97.240	67.3352
7880.000000	97.805	65.9647
8000.000000	98.431	63.1747
8120.000000	99.101	58.7153
8250.000000	99.777	51.4942
8380.000000	100.196	41.9041
8500.000000	100.198	31.9348
8620.000000	99.835	22.3422
8750.000000	99.177	13.2498
8850.000000	98.618	6.9613
9000.000000	97.748	-2.7577
9120.000000	96.762	-12.1479
9250.000000	94.766	-17.6848
9380.000000	93.936	-21.8893
9500.000000	92.364	-29.0947
9620.000000	90.328	-32.5799
9750.000000	88.067	-31.8001
9880.000000	86.042	-27.5233
10000.000000	84.448	-21.3054
10150.000000	82.918	-11.8170
10300.000000	81.838	-1.3770
10440.000000	81.286	8.0322
10600.000000	81.060	17.6435
10750.000000	81.071	25.1728
10900.000000	81.200	30.9912
11060.000000	81.348	35.7291
11200.000000	81.438	38.8275
11380.000000	81.444	41.4753
11500.000000	81.321	42.7438
11720.000000	80.780	45.3477
11800.000000	80.520	46.7230
12060.000000	79.518	52.4014
12200.000000	79.018	56.6182
12410.000000	78.201	64.4849
12500.000000	77.868	68.5103
12650.000000	77.418	75.7669
12800.000000	76.981	84.3554
13150.000000	77.151	107.3546
13200.000000	77.320	110.7439
13400.000000	78.094	121.2710
13600.000000	78.981	130.1452
13800.000000	79.889	137.7463
14000.000000	80.909	144.6621
14300.000000	82.662	154.0686
14500.000000	84.047	158.9064
14750.000000	85.953	161.6161
15000.000000	87.837	160.0490
15250.000000	89.268	154.1629
15500.000000	89.826	146.9388
15750.000000	89.828	142.5187
16000.000000	89.984	141.4010
16250.000000	90.611	139.0297
16500.000000	91.399	132.9026
16750.000000	91.819	120.1490
17000.000000	90.690	103.9221
17250.000000	88.228	95.0689
17500.000000	85.639	94.7536
17750.000000	83.607	99.1836
18000.000000	82.117	105.2378
18250.000000	81.145	111.4404
18500.000000	80.563	115.3850
18750.000000	80.178	116.0390
19000.000000	79.452	112.1294
19250.000000	77.795	107.6080
19500.000000	75.560	106.6994
19750.000000	72.995	110.5330
