* Measurement data measured by REW V5.20.4
* Source: Microphone (2- KM-HIFI-384KHZ), MICROPHONE (Master Volume), L, volume: 0.250
* Format: 256k Log Swept Sine, 1 sweep at -6.0 dBFS with no timing reference
* Dated: 15 Feb, 2022 4:35:10 PM
* REW Settings:
*  C-weighting compensation: Off
*  Target level: 75.0 dB
* Note: 
* Measurement: BLON BL03 L
* Smoothing: None
* Frequency Step: 1/48 octave
* Start Frequency: 20.000 Hz
*
* Freq(Hz)	SPL(dB)	Phase(degrees)
20.000000	102.141	158.0333
20.299999	102.119	157.7477
20.600000	102.092	157.4548
20.900000	102.061	157.1758
21.200001	102.028	156.9155
21.400000	102.007	156.7571
21.799999	101.969	156.4666
22.000000	101.953	156.3210
22.400000	101.924	155.9883
22.700001	101.902	155.7059
23.000000	101.876	155.4033
23.299999	101.846	155.0969
23.600000	101.813	154.8133
24.000000	101.769	154.4865
24.299999	101.741	154.2650
24.700001	101.711	153.9713
25.000000	101.691	153.7310
25.400000	101.665	153.3723
25.799999	101.633	153.0084
26.200001	101.597	152.6731
26.500000	101.569	152.4496
26.900000	101.533	152.1870
27.200001	101.508	151.9933
27.600000	101.477	151.7163
28.000000	101.445	151.4173
28.500000	101.400	151.0248
29.000000	101.348	150.6535
29.500000	101.294	150.3116
30.000000	101.241	149.9971
30.400000	101.203	149.7427
30.700001	101.175	149.5489
31.100000	101.136	149.2844
31.500000	101.096	149.0202
32.000000	101.044	148.7178
32.500000	100.995	148.4488
33.000000	100.953	148.1879
33.500000	100.913	147.8904
34.000000	100.871	147.5599
34.500000	100.829	147.2285
35.000000	100.784	146.9316
35.500000	100.742	146.6547
36.000000	100.701	146.3727
36.500000	100.657	146.0803
37.000000	100.608	145.8136
37.500000	100.558	145.5907
38.200001	100.497	145.3159
38.700001	100.455	145.0835
39.500000	100.379	144.6441
40.000000	100.324	144.3929
40.599998	100.260	144.1444
41.200001	100.204	143.8993
41.799999	100.149	143.6098
42.500000	100.077	143.2707
43.099998	100.016	143.0356
43.700001	99.963	142.8065
44.400002	99.901	142.4901
45.000000	99.841	142.2228
45.500000	99.790	142.0396
46.200001	99.727	141.8065
46.799999	99.676	141.5706
47.500000	99.610	141.2818
48.200001	99.540	141.0450
48.700001	99.494	140.8986
49.400002	99.437	140.6755
50.000000	99.386	140.4475
50.799999	99.309	140.1432
51.500000	99.239	139.9482
52.200001	99.179	139.7868
53.000000	99.116	139.5229
53.799999	99.038	139.2361
54.500000	98.966	139.0612
55.200001	98.904	138.8915
56.000000	98.832	138.6623
57.000000	98.744	138.4156
58.000000	98.661	138.1002
59.000000	98.562	137.8352
60.000000	98.473	137.6623
60.799999	98.408	137.4616
61.500000	98.346	137.2950
62.200001	98.284	137.1719
63.000000	98.221	137.0318
64.000000	98.143	136.7747
65.000000	98.051	136.5378
66.000000	97.966	136.4109
67.000000	97.893	136.2275
68.000000	97.809	136.0454
69.000000	97.730	135.9571
70.000000	97.663	135.8251
71.000000	97.589	135.6127
72.000000	97.504	135.4355
73.000000	97.421	135.2882
74.000000	97.342	135.1552
75.000000	97.268	134.9937
76.199997	97.175	134.7708
77.500000	97.071	134.6218
78.800003	96.984	134.4875
80.000000	96.896	134.3333
81.199997	96.810	134.2114
82.500000	96.710	134.0891
83.800003	96.616	134.0167
85.000000	96.532	133.9066
86.199997	96.443	133.8038
87.500000	96.353	133.7327
88.500000	96.287	133.6416
90.000000	96.181	133.5437
91.199997	96.106	133.4828
92.500000	96.021	133.3606
93.800003	95.932	133.2996
95.000000	95.854	133.2234
96.199997	95.773	133.1854
97.500000	95.697	133.1068
98.800003	95.601	133.0480
100.000000	95.531	133.0677
101.500000	95.435	132.9668
103.000000	95.340	132.9435
104.400002	95.255	132.8909
106.000000	95.156	132.8479
107.500000	95.063	132.8107
109.000000	94.973	132.7927
110.599998	94.879	132.7928
112.000000	94.796	132.7437
113.800003	94.692	132.7661
115.000000	94.625	132.7579
117.199997	94.500	132.7548
118.000000	94.453	132.7650
120.599998	94.308	132.7875
122.000000	94.233	132.8008
124.099998	94.119	132.8159
125.000000	94.073	132.8420
126.500000	93.996	132.8691
128.000000	93.918	132.9248
131.500000	93.739	132.9977
132.000000	93.713	133.0030
134.000000	93.614	133.0651
136.000000	93.511	133.1299
138.000000	93.416	133.1781
140.000000	93.323	133.2689
143.000000	93.177	133.4064
145.000000	93.084	133.4678
147.500000	92.969	133.5810
150.000000	92.857	133.6938
152.500000	92.740	133.8244
155.000000	92.623	133.9546
157.500000	92.507	134.1032
160.000000	92.394	134.2737
162.500000	92.278	134.3915
165.000000	92.176	134.5135
167.500000	92.064	134.7413
170.000000	91.955	134.8665
172.500000	91.855	135.0421
175.000000	91.752	135.2090
177.500000	91.662	135.3737
180.000000	91.560	135.5914
182.500000	91.462	135.7191
185.000000	91.367	135.9469
187.500000	91.271	136.1096
190.000000	91.180	136.3270
192.500000	91.089	136.5499
195.000000	90.999	136.7556
197.500000	90.922	137.0200
200.000000	90.827	137.1407
203.000000	90.720	137.4767
206.000000	90.608	137.7076
209.000000	90.512	138.0732
212.000000	90.414	138.3254
214.000000	90.345	138.5255
218.000000	90.200	139.0056
220.000000	90.126	139.1511
224.000000	90.003	139.7223
227.000000	89.896	140.1283
230.000000	89.799	140.5868
233.000000	89.712	141.0703
236.000000	89.624	141.5714
240.000000	89.547	142.3312
243.000000	89.487	142.7213
247.000000	89.444	143.1596
250.000000	89.388	143.4163
254.000000	89.309	143.8318
258.000000	89.213	144.1815
262.000000	89.140	144.5900
265.000000	89.096	144.8792
269.000000	89.010	145.2563
272.000000	88.961	145.6479
276.000000	88.896	145.9774
280.000000	88.824	146.1768
285.000000	88.726	146.4274
290.000000	88.597	146.7415
295.000000	88.466	147.0829
300.000000	88.334	147.4855
304.000000	88.228	147.8763
307.000000	88.151	148.2056
311.000000	88.048	148.6953
315.000000	87.943	149.1177
320.000000	87.825	149.7398
325.000000	87.711	150.3927
330.000000	87.588	151.0696
335.000000	87.473	151.6627
340.000000	87.371	152.4164
345.000000	87.267	153.0823
350.000000	87.165	153.8320
355.000000	87.071	154.5391
360.000000	86.977	155.3256
365.000000	86.885	156.1001
370.000000	86.800	156.8873
375.000000	86.714	157.7267
382.000000	86.607	158.8993
387.000000	86.530	159.7502
395.000000	86.423	161.1629
400.000000	86.359	162.0398
406.000000	86.298	163.0672
412.000000	86.238	164.1697
418.000000	86.189	165.2629
425.000000	86.137	166.5443
431.000000	86.111	167.6326
437.000000	86.083	168.7567
444.000000	86.077	170.0066
450.000000	86.085	171.0594
455.000000	86.089	171.8767
462.000000	86.131	173.0030
468.000000	86.174	173.8184
475.000000	86.267	174.6459
482.000000	86.351	174.9134
487.000000	86.381	175.0053
494.000000	86.533	174.5970
500.000000	86.400	171.3596
508.000000	85.325	173.5516
515.000000	85.310	178.9091
522.000000	85.571	-178.4100
530.000000	85.843	-177.0038
538.000000	86.014	-176.3227
545.000000	86.084	-175.5313
552.000000	86.162	-174.6676
560.000000	86.274	-173.8378
570.000000	86.382	-173.0370
580.000000	86.471	-172.3295
590.000000	86.544	-171.7790
600.000000	86.608	-171.1979
608.000000	86.651	-170.7768
615.000000	86.683	-170.4140
622.000000	86.712	-170.0366
630.000000	86.742	-169.6011
640.000000	86.763	-169.1039
650.000000	86.788	-168.5642
660.000000	86.804	-168.0225
670.000000	86.822	-167.4628
680.000000	86.833	-166.8665
690.000000	86.843	-166.2856
700.000000	86.852	-165.6964
710.000000	86.859	-165.1215
720.000000	86.863	-164.4615
730.000000	86.880	-163.8684
740.000000	86.875	-163.1589
750.000000	86.892	-162.5096
762.000000	86.908	-161.7368
775.000000	86.922	-160.8539
788.000000	86.933	-159.9807
800.000000	86.958	-159.1521
812.000000	86.976	-158.3171
825.000000	87.006	-157.4255
838.000000	87.042	-156.5254
850.000000	87.082	-155.7283
862.000000	87.119	-154.9023
875.000000	87.167	-154.0115
885.000000	87.203	-153.3687
900.000000	87.268	-152.3853
912.000000	87.325	-151.6367
925.000000	87.383	-150.8360
938.000000	87.453	-150.0074
950.000000	87.513	-149.3455
962.000000	87.585	-148.6469
975.000000	87.660	-147.9725
988.000000	87.741	-147.2811
1000.000000	87.816	-146.6269
1015.000000	87.914	-145.9368
1030.000000	88.020	-145.2345
1044.000000	88.111	-144.6502
1060.000000	88.218	-143.9784
1075.000000	88.323	-143.4011
1090.000000	88.409	-142.8413
1106.000000	88.504	-142.2918
1120.000000	88.581	-141.8093
1138.000000	88.686	-141.2340
1150.000000	88.755	-140.8658
1172.000000	88.874	-140.2254
1180.000000	88.916	-140.0232
1206.000000	89.057	-139.3343
1220.000000	89.154	-138.9828
1241.000000	89.313	-138.4408
1250.000000	89.374	-138.2547
1265.000000	89.486	-137.8779
1280.000000	89.596	-137.5582
1315.000000	89.848	-136.7994
1320.000000	89.885	-136.7092
1340.000000	90.028	-136.2779
1360.000000	90.218	-135.9013
1380.000000	90.368	-135.4871
1400.000000	90.518	-135.1233
1430.000000	90.745	-134.5881
1450.000000	90.895	-134.2454
1475.000000	91.083	-133.8474
1500.000000	91.275	-133.4303
1525.000000	91.461	-133.0939
1550.000000	91.634	-132.7585
1575.000000	91.798	-132.4573
1600.000000	91.966	-132.2232
1625.000000	92.136	-131.9818
1650.000000	92.304	-131.8223
1675.000000	92.477	-131.6646
1700.000000	92.651	-131.5720
1725.000000	92.825	-131.5320
1750.000000	93.004	-131.5276
1775.000000	93.177	-131.5820
1800.000000	93.351	-131.7074
1825.000000	93.528	-131.8635
1850.000000	93.699	-132.0802
1875.000000	93.869	-132.3623
1900.000000	94.039	-132.6935
1925.000000	94.200	-133.1070
1950.000000	94.351	-133.5654
1975.000000	94.508	-134.0845
2000.000000	94.652	-134.6467
2030.000000	94.815	-135.3988
2060.000000	94.971	-136.2416
2090.000000	95.113	-137.1395
2120.000000	95.240	-138.1144
2140.000000	95.318	-138.7916
2180.000000	95.451	-140.2080
2200.000000	95.505	-140.9351
2240.000000	95.595	-142.4236
2270.000000	95.641	-143.5567
2300.000000	95.674	-144.6751
2330.000000	95.686	-145.8090
2360.000000	95.682	-146.8964
2400.000000	95.653	-148.2990
2430.000000	95.616	-149.3090
2470.000000	95.547	-150.5369
2500.000000	95.479	-151.3854
2540.000000	95.379	-152.4269
2580.000000	95.266	-153.3141
2620.000000	95.137	-154.0901
2650.000000	95.035	-154.5893
2690.000000	94.894	-155.1649
2720.000000	94.782	-155.5139
2760.000000	94.633	-155.8510
2800.000000	94.482	-156.0776
2850.000000	94.295	-156.1892
2900.000000	94.110	-156.1526
2950.000000	93.932	-155.9348
3000.000000	93.762	-155.6227
3040.000000	93.633	-155.2604
3070.000000	93.537	-154.9488
3110.000000	93.419	-154.4663
3150.000000	93.307	-153.9392
3200.000000	93.176	-153.1790
3250.000000	93.060	-152.3731
3300.000000	92.952	-151.4890
3350.000000	92.862	-150.5448
3400.000000	92.781	-149.5555
3450.000000	92.719	-148.5363
3500.000000	92.674	-147.5154
3550.000000	92.641	-146.4523
3600.000000	92.623	-145.4082
3650.000000	92.615	-144.3530
3700.000000	92.621	-143.3062
3750.000000	92.641	-142.2691
3820.000000	92.680	-140.8647
3870.000000	92.724	-139.8717
3950.000000	92.822	-138.3613
4000.000000	92.892	-137.4798
4060.000000	92.991	-136.5276
4120.000000	93.114	-135.6261
4180.000000	93.231	-134.8623
4250.000000	93.384	-133.9588
4310.000000	93.525	-133.2329
4370.000000	93.695	-132.5812
4440.000000	93.934	-132.0064
4500.000000	94.157	-131.7615
4550.000000	94.349	-131.7803
4620.000000	94.626	-132.1600
4680.000000	94.851	-132.8096
4750.000000	95.096	-133.9253
4820.000000	95.301	-135.4134
4870.000000	95.417	-136.6964
4940.000000	95.526	-138.7394
5000.000000	95.564	-140.6103
5080.000000	95.532	-143.2993
5150.000000	95.422	-145.6413
5220.000000	95.238	-147.8323
5300.000000	94.945	-150.0973
5380.000000	94.577	-151.9921
5450.000000	94.205	-153.1177
5520.000000	93.826	-153.8513
5600.000000	93.375	-154.4129
5700.000000	92.790	-154.5405
5800.000000	92.200	-154.0769
5900.000000	91.642	-152.9940
6000.000000	91.109	-151.4237
6080.000000	90.709	-149.8116
6150.000000	90.399	-148.2233
6220.000000	90.112	-146.4543
6300.000000	89.808	-144.2459
6400.000000	89.498	-141.4174
6500.000000	89.229	-138.4101
6600.000000	89.028	-135.3282
6700.000000	88.858	-132.1127
6800.000000	88.749	-128.8196
6900.000000	88.719	-125.3685
7000.000000	88.820	-121.8725
7100.000000	89.007	-118.3906
7200.000000	89.283	-115.0936
7300.000000	89.634	-111.9541
7400.000000	90.081	-109.2342
7500.000000	90.622	-106.9391
7620.000000	91.385	-104.9923
7750.000000	92.476	-104.2341
7880.000000	93.520	-105.7235
8000.000000	94.554	-109.9783
8120.000000	95.418	-117.9534
8250.000000	95.736	-130.4486
8380.000000	95.064	-143.6474
8500.000000	93.734	-152.9972
8620.000000	92.121	-158.4397
8750.000000	90.326	-160.7609
8850.000000	89.022	-160.6286
9000.000000	87.262	-158.4150
9120.000000	86.003	-155.5210
9250.000000	84.780	-151.5009
9380.000000	83.686	-147.0040
9500.000000	82.774	-142.4690
9620.000000	81.976	-137.5657
9750.000000	81.202	-131.9502
9880.000000	80.508	-126.2431
10000.000000	79.957	-120.7528
10150.000000	79.311	-113.8072
10300.000000	78.764	-106.6311
10440.000000	78.379	-99.7623
10600.000000	78.060	-92.0028
10750.000000	77.792	-84.2809
10900.000000	77.610	-76.7919
11060.000000	77.563	-68.1559
11200.000000	77.646	-60.3734
11380.000000	77.950	-49.3268
11500.000000	78.446	-42.3961
11720.000000	79.845	-31.1882
11800.000000	80.495	-28.3492
12060.000000	82.638	-23.3600
12200.000000	83.790	-22.6686
12410.000000	85.489	-23.9329
12500.000000	86.256	-25.4819
12650.000000	87.484	-30.0621
12800.000000	88.512	-37.8821
13150.000000	88.481	-62.3779
13200.000000	88.185	-65.1319
13400.000000	86.731	-72.1034
13600.000000	85.288	-73.6463
13800.000000	84.191	-71.8658
14000.000000	83.393	-68.0764
14300.000000	82.907	-60.9458
14500.000000	83.060	-56.1199
14750.000000	83.849	-50.8672
15000.000000	85.372	-49.3914
15250.000000	87.585	-56.8245
15500.000000	88.922	-79.8818
15750.000000	86.973	-105.3369
16000.000000	83.813	-115.7990
16250.000000	81.233	-117.1144
16500.000000	79.520	-115.7205
16750.000000	78.608	-116.1566
17000.000000	78.296	-122.5247
17250.000000	77.222	-141.2047
17500.000000	73.429	-160.8278
17750.000000	68.498	-167.8145
18000.000000	63.691	-165.6484
18250.000000	58.897	-160.1328
18500.000000	55.627	-149.5488
18750.000000	51.032	-138.2040
19000.000000	48.652	-135.6043
19250.000000	45.233	-110.7953
19500.000000	44.587	-116.4908
19750.000000	40.653	-87.8017
