* Measurement data measured by REW V5.20.4
* Source: Microphone (2- KM-HIFI-384KHZ), MICROPHONE (Master Volume), R, volume: 0.250
* Format: 256k Log Swept Sine, 1 sweep at -6.0 dBFS with no timing reference
* Dated: 15 Feb, 2022 4:33:11 PM
* REW Settings:
*  C-weighting compensation: Off
*  Target level: 75.0 dB
* Note: 
* Measurement: BLON BL03 R
* Smoothing: None
* Frequency Step: 1/48 octave
* Start Frequency: 20.000 Hz
*
* Freq(Hz)	SPL(dB)	Phase(degrees)
20.000000	101.263	158.5589
20.299999	101.241	158.3066
20.600000	101.220	158.0505
20.900000	101.198	157.7983
21.200001	101.176	157.5413
21.400000	101.162	157.3715
21.799999	101.135	157.0414
22.000000	101.121	156.8785
22.400000	101.094	156.5413
22.700001	101.074	156.2882
23.000000	101.054	156.0328
23.299999	101.032	155.7693
23.600000	101.009	155.5073
24.000000	100.977	155.1664
24.299999	100.953	154.9156
24.700001	100.921	154.5929
25.000000	100.897	154.3594
25.400000	100.865	154.0509
25.799999	100.833	153.7542
26.200001	100.801	153.4619
26.500000	100.777	153.2439
26.900000	100.744	152.9622
27.200001	100.716	152.7524
27.600000	100.680	152.4734
28.000000	100.643	152.2013
28.500000	100.597	151.8623
29.000000	100.549	151.5322
29.500000	100.500	151.2086
30.000000	100.451	150.9055
30.400000	100.415	150.6671
30.700001	100.389	150.4897
31.100000	100.354	150.2449
31.500000	100.319	149.9873
32.000000	100.270	149.6679
32.500000	100.219	149.3702
33.000000	100.171	149.1010
33.500000	100.124	148.8269
34.000000	100.080	148.5287
34.500000	100.039	148.2100
35.000000	99.994	147.9077
35.500000	99.952	147.6318
36.000000	99.913	147.3660
36.500000	99.877	147.0816
37.000000	99.839	146.7881
37.500000	99.797	146.5098
38.200001	99.739	146.1772
38.700001	99.697	145.9502
39.500000	99.629	145.5612
40.000000	99.582	145.3291
40.599998	99.523	145.0889
41.200001	99.468	144.8705
41.799999	99.414	144.6394
42.500000	99.348	144.3632
43.099998	99.293	144.1411
43.700001	99.240	143.9088
44.400002	99.177	143.6067
45.000000	99.119	143.3560
45.500000	99.070	143.1714
46.200001	99.008	142.9209
46.799999	98.957	142.6808
47.500000	98.890	142.4175
48.200001	98.827	142.2078
48.700001	98.788	142.0464
49.400002	98.729	141.7679
50.000000	98.668	141.5596
50.799999	98.593	141.4066
51.500000	98.547	141.2323
52.200001	98.495	140.9277
53.000000	98.412	140.6184
53.799999	98.333	140.4467
54.500000	98.275	140.2742
55.200001	98.215	140.0633
56.000000	98.144	139.8412
57.000000	98.056	139.5784
58.000000	97.972	139.3578
59.000000	97.891	139.0867
60.000000	97.792	138.8527
60.799999	97.727	138.7211
61.500000	97.672	138.5421
62.200001	97.608	138.3837
63.000000	97.541	138.2776
64.000000	97.466	138.0364
65.000000	97.376	137.8548
66.000000	97.305	137.6949
67.000000	97.218	137.4588
68.000000	97.139	137.3964
69.000000	97.070	137.1566
70.000000	96.973	137.0466
71.000000	96.912	136.9815
72.000000	96.827	136.7643
73.000000	96.750	136.8011
74.000000	96.702	136.6137
75.000000	96.606	136.4240
76.199997	96.537	136.4849
77.500000	96.453	136.1310
78.800003	96.359	136.0980
80.000000	96.290	135.7968
81.199997	96.185	135.6538
82.500000	96.100	135.5652
83.800003	96.014	135.4156
85.000000	95.924	135.2609
86.199997	95.840	135.2465
87.500000	95.759	135.0438
88.500000	95.677	134.9792
90.000000	95.579	134.9096
91.199997	95.499	134.8339
92.500000	95.413	134.7301
93.800003	95.332	134.6824
95.000000	95.253	134.5869
96.199997	95.174	134.5520
97.500000	95.089	134.5538
98.800003	95.020	134.5394
100.000000	94.945	134.4960
101.500000	94.863	134.4133
103.000000	94.766	134.3734
104.400002	94.684	134.2800
106.000000	94.583	134.2534
107.500000	94.493	134.2915
109.000000	94.419	134.2286
110.599998	94.329	134.1932
112.000000	94.241	134.1449
113.800003	94.136	134.1493
115.000000	94.073	134.2036
117.199997	93.954	134.1771
118.000000	93.914	134.1562
120.599998	93.779	134.1361
122.000000	93.693	134.1883
124.099998	93.575	134.2225
125.000000	93.535	134.3023
126.500000	93.453	134.2875
128.000000	93.388	134.3809
131.500000	93.222	134.4223
132.000000	93.195	134.4674
134.000000	93.108	134.4260
136.000000	93.021	134.5331
138.000000	92.902	134.6207
140.000000	92.803	134.5853
143.000000	92.664	134.7191
145.000000	92.588	134.8018
147.500000	92.466	134.9753
150.000000	92.349	135.1178
152.500000	92.223	135.1062
155.000000	92.109	135.2433
157.500000	92.015	135.4500
160.000000	91.918	135.6036
162.500000	91.853	135.7486
165.000000	91.736	136.1536
167.500000	91.591	136.3148
170.000000	91.479	136.2643
172.500000	91.380	136.4910
175.000000	91.271	136.5408
177.500000	91.198	136.6547
180.000000	91.100	136.9591
182.500000	90.999	137.2408
185.000000	90.911	137.2816
187.500000	90.805	137.5159
190.000000	90.725	137.7130
192.500000	90.632	138.0919
195.000000	90.528	138.0839
197.500000	90.448	138.4311
200.000000	90.379	138.7830
203.000000	90.283	138.8253
206.000000	90.198	139.2934
209.000000	90.096	139.1252
212.000000	89.997	139.6942
214.000000	89.988	140.1198
218.000000	89.763	140.1859
220.000000	89.751	140.8013
224.000000	89.610	140.8901
227.000000	89.531	141.4316
230.000000	89.410	141.7301
233.000000	89.410	142.6205
236.000000	89.385	142.6013
240.000000	89.172	142.3737
243.000000	89.125	143.4869
247.000000	89.108	143.7099
250.000000	89.003	143.8199
254.000000	88.877	144.3770
258.000000	88.782	145.5196
262.000000	88.703	146.0652
265.000000	88.745	146.5903
269.000000	88.684	146.5314
272.000000	88.633	146.7703
276.000000	88.561	146.8210
280.000000	88.474	146.9481
285.000000	88.349	147.2025
290.000000	88.206	147.6382
295.000000	88.067	148.0989
300.000000	87.959	148.5634
304.000000	87.854	149.2213
307.000000	87.761	149.4234
311.000000	87.694	149.8658
315.000000	87.592	150.2106
320.000000	87.467	150.9551
325.000000	87.366	151.3419
330.000000	87.262	152.2298
335.000000	87.136	152.7445
340.000000	87.054	153.4101
345.000000	86.952	154.1560
350.000000	86.853	154.7920
355.000000	86.765	155.4272
360.000000	86.680	156.2624
365.000000	86.585	156.9781
370.000000	86.508	157.7187
375.000000	86.429	158.4834
382.000000	86.318	159.5969
387.000000	86.256	160.4450
395.000000	86.143	161.6719
400.000000	86.086	162.5374
406.000000	86.024	163.5910
412.000000	85.971	164.5489
418.000000	85.924	165.5251
425.000000	85.874	166.6135
431.000000	85.829	167.5965
437.000000	85.796	168.5654
444.000000	85.760	169.6996
450.000000	85.736	170.6600
455.000000	85.723	171.4405
462.000000	85.712	172.5630
468.000000	85.727	173.4948
475.000000	85.718	174.4829
482.000000	85.734	175.4655
487.000000	85.756	176.0645
494.000000	85.788	176.8345
500.000000	85.816	177.2766
508.000000	85.828	177.5615
515.000000	85.706	177.7877
522.000000	85.549	178.7775
530.000000	85.452	-178.8323
538.000000	85.569	-176.8783
545.000000	85.692	-175.8728
552.000000	85.795	-175.1342
560.000000	85.883	-174.4326
570.000000	85.980	-173.6154
580.000000	86.057	-172.8673
590.000000	86.113	-172.1272
600.000000	86.173	-171.4739
608.000000	86.208	-170.9631
615.000000	86.240	-170.5557
622.000000	86.258	-170.0887
630.000000	86.286	-169.6026
640.000000	86.315	-169.0036
650.000000	86.337	-168.4189
660.000000	86.364	-167.8003
670.000000	86.377	-167.1790
680.000000	86.395	-166.4957
690.000000	86.407	-165.9514
700.000000	86.418	-165.2898
710.000000	86.435	-164.6538
720.000000	86.442	-164.0128
730.000000	86.459	-163.3291
740.000000	86.471	-162.6948
750.000000	86.483	-161.9980
762.000000	86.501	-161.2126
775.000000	86.521	-160.3138
788.000000	86.544	-159.4817
800.000000	86.567	-158.5929
812.000000	86.593	-157.7551
825.000000	86.623	-156.8734
838.000000	86.666	-156.0027
850.000000	86.704	-155.1489
862.000000	86.747	-154.3333
875.000000	86.798	-153.4762
885.000000	86.837	-152.8008
900.000000	86.903	-151.8391
912.000000	86.961	-151.0763
925.000000	87.027	-150.2973
938.000000	87.096	-149.5629
950.000000	87.158	-148.8602
962.000000	87.237	-148.1950
975.000000	87.311	-147.4684
988.000000	87.397	-146.8112
1000.000000	87.476	-146.1924
1015.000000	87.574	-145.4710
1030.000000	87.679	-144.8428
1044.000000	87.773	-144.2254
1060.000000	87.885	-143.5626
1075.000000	87.982	-142.9981
1090.000000	88.075	-142.4460
1106.000000	88.169	-141.9223
1120.000000	88.248	-141.4564
1138.000000	88.351	-140.8986
1150.000000	88.424	-140.5377
1172.000000	88.536	-139.9148
1180.000000	88.584	-139.7202
1206.000000	88.725	-139.0625
1220.000000	88.817	-138.7320
1241.000000	88.977	-138.1997
1250.000000	89.046	-138.0198
1265.000000	89.158	-137.6660
1280.000000	89.263	-137.3493
1315.000000	89.521	-136.6066
1320.000000	89.553	-136.5175
1340.000000	89.695	-136.0947
1360.000000	89.884	-135.7210
1380.000000	90.033	-135.3370
1400.000000	90.180	-134.9777
1430.000000	90.406	-134.4688
1450.000000	90.553	-134.1364
1475.000000	90.736	-133.7411
1500.000000	90.925	-133.3650
1525.000000	91.113	-133.0382
1550.000000	91.277	-132.6973
1575.000000	91.441	-132.4288
1600.000000	91.607	-132.1809
1625.000000	91.772	-131.9556
1650.000000	91.940	-131.7648
1675.000000	92.107	-131.6513
1700.000000	92.278	-131.5432
1725.000000	92.451	-131.4970
1750.000000	92.622	-131.4800
1775.000000	92.795	-131.5300
1800.000000	92.966	-131.6386
1825.000000	93.136	-131.7928
1850.000000	93.303	-131.9699
1875.000000	93.472	-132.2394
1900.000000	93.628	-132.5580
1925.000000	93.792	-132.9182
1950.000000	93.944	-133.3447
1975.000000	94.092	-133.8565
2000.000000	94.236	-134.3816
2030.000000	94.396	-135.0905
2060.000000	94.547	-135.8815
2090.000000	94.689	-136.7171
2120.000000	94.814	-137.6318
2140.000000	94.892	-138.2667
2180.000000	95.027	-139.5947
2200.000000	95.084	-140.2903
2240.000000	95.179	-141.6905
2270.000000	95.230	-142.7648
2300.000000	95.269	-143.8466
2330.000000	95.287	-144.9175
2360.000000	95.291	-145.9621
2400.000000	95.273	-147.3056
2430.000000	95.244	-148.2788
2470.000000	95.185	-149.4843
2500.000000	95.130	-150.3164
2540.000000	95.039	-151.3426
2580.000000	94.932	-152.2191
2620.000000	94.812	-153.0197
2650.000000	94.716	-153.5177
2690.000000	94.583	-154.0770
2720.000000	94.479	-154.4067
2760.000000	94.340	-154.7477
2800.000000	94.199	-154.9756
2850.000000	94.029	-155.1207
2900.000000	93.861	-155.1059
2950.000000	93.696	-154.9621
3000.000000	93.539	-154.7133
3040.000000	93.418	-154.3808
3070.000000	93.328	-154.0901
3110.000000	93.216	-153.6662
3150.000000	93.109	-153.1908
3200.000000	92.984	-152.4627
3250.000000	92.874	-151.7110
3300.000000	92.774	-150.9172
3350.000000	92.688	-150.0574
3400.000000	92.615	-149.1547
3450.000000	92.556	-148.2137
3500.000000	92.508	-147.2924
3550.000000	92.470	-146.3241
3600.000000	92.449	-145.3326
3650.000000	92.438	-144.3410
3700.000000	92.440	-143.3545
3750.000000	92.453	-142.3456
3820.000000	92.497	-141.0024
3870.000000	92.540	-140.0680
3950.000000	92.638	-138.6299
4000.000000	92.708	-137.7975
4060.000000	92.814	-136.8216
4120.000000	92.932	-135.9861
4180.000000	93.058	-135.2456
4250.000000	93.224	-134.5644
4310.000000	93.379	-134.0682
4370.000000	93.546	-133.7335
4440.000000	93.742	-133.5158
4500.000000	93.919	-133.5205
4550.000000	94.072	-133.6105
4620.000000	94.280	-134.0220
4680.000000	94.453	-134.6397
4750.000000	94.640	-135.6136
4820.000000	94.797	-136.8802
4870.000000	94.889	-137.9946
4940.000000	94.960	-139.7513
5000.000000	94.980	-141.4229
5080.000000	94.914	-143.7883
5150.000000	94.772	-145.8196
5220.000000	94.542	-147.4508
5300.000000	94.307	-148.7882
5380.000000	94.032	-150.3482
5450.000000	93.726	-151.5072
5520.000000	93.367	-152.2717
5600.000000	92.933	-152.7372
5700.000000	92.380	-152.6906
5800.000000	91.844	-152.0642
5900.000000	91.328	-150.8951
6000.000000	90.850	-149.2665
6080.000000	90.500	-147.6790
6150.000000	90.225	-146.1149
6220.000000	89.983	-144.3976
6300.000000	89.736	-142.4070
6400.000000	89.473	-139.7607
6500.000000	89.256	-137.1920
6600.000000	89.075	-134.3710
6700.000000	88.922	-131.5812
6800.000000	88.819	-128.5807
6900.000000	88.804	-125.6246
7000.000000	88.897	-122.4632
7100.000000	89.041	-119.2067
7200.000000	89.298	-116.0440
7300.000000	89.630	-113.1167
7400.000000	90.057	-110.5000
7500.000000	90.585	-108.3327
7620.000000	91.355	-106.5786
7750.000000	92.448	-106.2487
7880.000000	93.459	-108.2906
8000.000000	94.415	-113.2008
8120.000000	95.134	-121.5302
8250.000000	95.259	-133.7110
8380.000000	94.469	-145.8413
8500.000000	93.137	-154.0887
8620.000000	91.584	-158.8795
8750.000000	89.872	-160.7779
8850.000000	88.624	-160.5734
9000.000000	86.920	-158.3703
9120.000000	85.687	-155.4532
9250.000000	84.511	-151.5557
9380.000000	83.439	-147.0635
9500.000000	82.545	-142.5614
9620.000000	81.785	-137.7436
9750.000000	80.977	-132.3465
9880.000000	80.301	-126.7184
10000.000000	79.764	-121.4052
10150.000000	79.127	-114.6220
10300.000000	78.613	-107.5411
10440.000000	78.276	-101.4026
10600.000000	77.867	-93.4137
10750.000000	77.592	-86.1146
10900.000000	77.430	-78.5493
11060.000000	77.366	-70.0915
11200.000000	77.494	-62.6486
11380.000000	77.817	-52.5610
11500.000000	78.298	-46.2783
11720.000000	79.516	-36.3835
11800.000000	80.063	-33.8680
12060.000000	81.957	-28.6989
12200.000000	82.980	-27.9186
12410.000000	84.499	-29.2709
12500.000000	85.147	-30.9685
12650.000000	86.153	-35.2378
12800.000000	86.896	-41.9043
13150.000000	86.777	-60.6758
13200.000000	86.550	-62.7902
13400.000000	85.394	-68.3244
13600.000000	84.199	-69.7729
13800.000000	83.254	-68.3104
14000.000000	82.565	-64.7557
14300.000000	82.098	-58.0249
14500.000000	82.278	-53.0838
14750.000000	83.001	-47.7001
15000.000000	84.424	-45.5784
15250.000000	86.554	-50.9633
15500.000000	88.266	-71.1688
15750.000000	86.892	-97.9389
16000.000000	83.809	-111.2028
16250.000000	81.059	-113.8881
16500.000000	79.064	-113.0252
16750.000000	77.782	-112.7025
17000.000000	77.029	-116.9013
17250.000000	75.940	-128.2449
17500.000000	73.174	-143.6052
17750.000000	69.135	-153.2552
18000.000000	64.820	-152.2740
18250.000000	61.090	-149.3414
18500.000000	57.558	-141.2796
18750.000000	54.739	-130.8225
19000.000000	51.610	-126.8055
19250.000000	49.719	-107.2275
19500.000000	47.947	-106.2113
19750.000000	43.392	-84.6449
