* Measurement data measured by REW V5.20.4
* Source: Microphone (2- KM-HIFI-384KHZ), MICROPHONE (Master Volume), L, volume: 0.250
* Format: 256k Log Swept Sine, 1 sweep at -6.0 dBFS with no timing reference
* Dated: 24 Apr, 2022 12:37:09 AM
* REW Settings:
*  C-weighting compensation: Off
*  Target level: 75.0 dB
* Note: 
* Measurement: Chu 2 L
* Smoothing: None
* Frequency Step: 1/48 octave
* Start Frequency: 20.300 Hz
*
* Freq(Hz)	SPL(dB)	Phase(degrees)
20.299999	93.415	-173.0834
20.600000	93.413	-173.5231
20.900000	93.406	-173.9013
21.200001	93.401	-174.2857
21.400000	93.399	-174.5515
21.799999	93.400	-175.1028
22.000000	93.401	-175.3866
22.400000	93.401	-175.9626
22.700001	93.401	-176.3679
23.000000	93.401	-176.7378
23.299999	93.402	-177.0832
23.600000	93.405	-177.4094
24.000000	93.411	-177.8361
24.299999	93.413	-178.1644
24.700001	93.408	-178.6017
25.000000	93.399	-178.9138
25.400000	93.382	-179.3017
25.799999	93.366	-179.6589
26.200001	93.355	179.9689
26.500000	93.349	179.6574
26.900000	93.338	179.2061
27.200001	93.325	178.8564
27.600000	93.305	178.4131
28.000000	93.287	178.0312
28.500000	93.273	177.6127
29.000000	93.264	177.1993
29.500000	93.248	176.7670
30.000000	93.220	176.3813
30.400000	93.201	176.1195
30.700001	93.193	175.9340
31.100000	93.188	175.6457
31.500000	93.185	175.2783
32.000000	93.166	174.7628
32.500000	93.125	174.3305
33.000000	93.080	174.0841
33.500000	93.052	173.9303
34.000000	93.042	173.6921
34.500000	93.034	173.2934
35.000000	93.008	172.8339
35.500000	92.971	172.4396
36.000000	92.938	172.1372
36.500000	92.916	171.8561
37.000000	92.897	171.5518
37.500000	92.877	171.2430
38.200001	92.845	170.8879
38.700001	92.824	170.6765
39.500000	92.784	170.3199
40.000000	92.748	170.0804
40.599998	92.699	169.7842
41.200001	92.659	169.4535
41.799999	92.628	169.0863
42.500000	92.595	168.7285
43.099998	92.567	168.5484
43.700001	92.532	168.3785
44.400002	92.466	168.1064
45.000000	92.404	167.9095
45.500000	92.383	167.7729
46.200001	92.394	167.4318
46.799999	92.367	167.0739
47.500000	92.255	167.1597
48.200001	92.160	167.7338
48.700001	92.138	167.8911
49.400002	92.113	167.4390
50.000000	92.072	166.9576
50.799999	92.058	166.7493
51.500000	92.081	166.6536
52.200001	92.073	166.5035
53.000000	92.049	166.3100
53.799999	92.037	165.9000
54.500000	92.009	165.5708
55.200001	91.977	165.4646
56.000000	91.944	165.3242
57.000000	91.884	164.8611
58.000000	91.818	164.4341
59.000000	91.775	164.3473
60.000000	91.743	164.1487
60.799999	91.690	163.8939
61.500000	91.649	163.7855
62.200001	91.621	163.6891
63.000000	91.583	163.5490
64.000000	91.527	163.3236
65.000000	91.453	163.1090
66.000000	91.403	163.0903
67.000000	91.365	162.8798
68.000000	91.303	162.7486
69.000000	91.266	162.6647
70.000000	91.212	162.5206
71.000000	91.157	162.4738
72.000000	91.115	162.3528
73.000000	91.058	162.1884
74.000000	90.993	162.2011
75.000000	90.964	162.1232
76.199997	90.915	161.8517
77.500000	90.865	161.8686
78.800003	90.786	161.8336
80.000000	90.712	161.8271
81.199997	90.667	161.7148
82.500000	90.607	161.6364
83.800003	90.558	161.5708
85.000000	90.527	161.4821
86.199997	90.478	161.3653
87.500000	90.399	161.4518
88.500000	90.359	161.4511
90.000000	90.285	161.4276
91.199997	90.238	161.4612
92.500000	90.179	161.4756
93.800003	90.128	161.4845
95.000000	90.079	161.4595
96.199997	90.024	161.5680
97.500000	90.007	161.6037
98.800003	89.959	161.6518
100.000000	89.902	161.8841
101.500000	89.847	161.6779
103.000000	89.746	161.3100
104.400002	89.851	161.3528
106.000000	89.643	161.6062
107.500000	89.618	161.9907
109.000000	89.573	162.1127
110.599998	89.552	162.3792
112.000000	89.479	162.0914
113.800003	89.370	162.2600
115.000000	89.362	162.4271
117.199997	89.298	162.4586
118.000000	89.281	162.4710
120.599998	89.211	162.6533
122.000000	89.142	162.6391
124.099998	89.095	162.8620
125.000000	89.067	162.8884
126.500000	89.005	163.0718
128.000000	89.014	163.2958
131.500000	88.756	162.7606
132.000000	88.759	163.1466
134.000000	88.747	163.0692
136.000000	88.694	164.0447
138.000000	88.705	164.0275
140.000000	88.631	163.7859
143.000000	88.460	164.9294
145.000000	88.375	165.0603
147.500000	88.329	165.5341
150.000000	88.000	168.3444
152.500000	87.871	167.6561
155.000000	87.936	169.0541
157.500000	88.172	170.6371
160.000000	88.264	170.2330
162.500000	88.367	171.0155
165.000000	88.555	170.8026
167.500000	88.538	170.4510
170.000000	88.532	170.0719
172.500000	88.567	169.8909
175.000000	88.535	169.2975
177.500000	88.527	169.1657
180.000000	88.468	169.1738
182.500000	88.426	169.0123
185.000000	88.379	169.0090
187.500000	88.355	169.2258
190.000000	88.282	169.2993
192.500000	88.222	169.2968
195.000000	88.190	169.3645
197.500000	88.138	169.4474
200.000000	88.102	169.6197
203.000000	88.062	169.7780
206.000000	88.021	170.0047
209.000000	87.982	170.1884
212.000000	87.945	170.4044
214.000000	87.927	170.5763
218.000000	87.869	170.8354
220.000000	87.858	171.0203
224.000000	87.800	171.3506
227.000000	87.773	171.6163
230.000000	87.715	171.7047
233.000000	87.708	172.0277
236.000000	87.674	172.1640
240.000000	87.638	172.6252
243.000000	87.623	172.8521
247.000000	87.588	173.1842
250.000000	87.572	173.1805
254.000000	87.526	173.7205
258.000000	87.495	174.0181
262.000000	87.473	174.3466
265.000000	87.454	174.6165
269.000000	87.427	174.8990
272.000000	87.407	175.1497
276.000000	87.381	175.5192
280.000000	87.356	175.8135
285.000000	87.329	176.2640
290.000000	87.304	176.6626
295.000000	87.279	177.0519
300.000000	87.256	177.3630
304.000000	87.240	177.6540
307.000000	87.226	177.8689
311.000000	87.199	178.1931
315.000000	87.178	178.4290
320.000000	87.161	178.7904
325.000000	87.136	179.1837
330.000000	87.108	179.5219
335.000000	87.093	179.9227
340.000000	87.065	-179.7303
345.000000	87.049	-179.3639
350.000000	87.035	-178.8929
355.000000	87.014	-178.6868
360.000000	87.003	-178.3079
365.000000	86.986	-177.9507
370.000000	86.975	-177.6051
375.000000	86.965	-177.2221
382.000000	86.938	-176.7240
387.000000	86.927	-176.3936
395.000000	86.906	-175.8139
400.000000	86.896	-175.4805
406.000000	86.879	-175.0549
412.000000	86.873	-174.6118
418.000000	86.862	-174.1980
425.000000	86.855	-173.7241
431.000000	86.840	-173.3046
437.000000	86.827	-172.9082
444.000000	86.816	-172.4429
450.000000	86.835	-172.1811
455.000000	86.803	-171.7284
462.000000	86.791	-171.2826
468.000000	86.781	-170.8683
475.000000	86.770	-170.3996
482.000000	86.765	-169.9539
487.000000	86.758	-169.5979
494.000000	86.753	-169.1380
500.000000	86.751	-168.7492
508.000000	86.750	-168.1978
515.000000	86.749	-167.7495
522.000000	86.743	-167.2871
530.000000	86.744	-166.7590
538.000000	86.743	-166.2292
545.000000	86.742	-165.7477
552.000000	86.742	-165.2757
560.000000	86.743	-164.7728
570.000000	86.748	-164.0931
580.000000	86.753	-163.4130
590.000000	86.753	-162.7501
600.000000	86.768	-162.0845
608.000000	86.773	-161.5660
615.000000	86.775	-161.0889
622.000000	86.778	-160.6198
630.000000	86.784	-160.0777
640.000000	86.796	-159.4203
650.000000	86.814	-158.6160
660.000000	86.819	-158.0728
670.000000	86.832	-157.3890
680.000000	86.845	-156.7076
690.000000	86.864	-156.0415
700.000000	86.877	-155.3338
710.000000	86.898	-154.6728
720.000000	86.919	-154.0015
730.000000	86.943	-153.2977
740.000000	86.963	-152.6343
750.000000	86.970	-151.9655
762.000000	87.027	-151.1649
775.000000	87.064	-150.2715
788.000000	87.108	-149.4153
800.000000	87.157	-148.6457
812.000000	87.200	-147.8052
825.000000	87.253	-147.0149
838.000000	87.305	-146.1783
850.000000	87.383	-145.4468
862.000000	87.423	-144.7121
875.000000	87.494	-143.9367
885.000000	87.544	-143.3584
900.000000	87.627	-142.4965
912.000000	87.688	-141.7743
925.000000	87.769	-140.9596
938.000000	87.859	-140.0720
950.000000	87.998	-139.1864
962.000000	88.162	-138.9807
975.000000	88.238	-138.9215
988.000000	88.303	-138.5886
1000.000000	88.352	-138.1361
1015.000000	88.425	-137.3479
1030.000000	88.554	-136.5096
1044.000000	88.698	-135.9382
1060.000000	88.853	-135.4662
1075.000000	88.993	-135.1906
1090.000000	89.103	-134.9389
1106.000000	89.211	-134.6709
1120.000000	89.299	-134.4870
1138.000000	89.406	-134.2433
1150.000000	89.476	-134.1003
1172.000000	89.593	-133.8250
1180.000000	89.636	-133.7132
1206.000000	89.767	-133.4135
1220.000000	89.853	-133.2407
1241.000000	90.004	-133.0456
1250.000000	90.062	-132.9810
1265.000000	90.163	-132.8241
1280.000000	90.261	-132.6540
1315.000000	90.481	-132.2874
1320.000000	90.514	-132.2284
1340.000000	90.635	-132.0218
1360.000000	90.804	-131.8076
1380.000000	90.924	-131.6334
1400.000000	91.049	-131.4165
1430.000000	91.233	-131.1020
1450.000000	91.353	-130.8796
1475.000000	91.502	-130.5814
1500.000000	91.655	-130.3251
1525.000000	91.808	-130.0662
1550.000000	91.924	-129.7817
1575.000000	92.046	-129.5305
1600.000000	92.172	-129.2606
1625.000000	92.297	-129.0141
1650.000000	92.421	-128.7666
1675.000000	92.548	-128.5202
1700.000000	92.676	-128.3262
1725.000000	92.804	-128.1049
1750.000000	92.937	-127.9169
1775.000000	93.070	-127.7481
1800.000000	93.206	-127.5982
1825.000000	93.340	-127.4778
1850.000000	93.477	-127.3685
1875.000000	93.613	-127.2646
1900.000000	93.744	-127.1990
1925.000000	93.890	-127.1459
1950.000000	94.031	-127.1304
1975.000000	94.174	-127.1582
2000.000000	94.315	-127.2399
2030.000000	94.480	-127.4196
2060.000000	94.643	-127.6412
2090.000000	94.797	-127.8918
2120.000000	94.945	-128.1849
2140.000000	95.045	-128.3906
2180.000000	95.233	-128.8425
2200.000000	95.328	-129.1007
2240.000000	95.508	-129.6571
2270.000000	95.638	-130.1043
2300.000000	95.764	-130.5963
2330.000000	95.887	-131.0891
2360.000000	96.003	-131.6219
2400.000000	96.155	-132.3921
2430.000000	96.263	-133.0112
2470.000000	96.396	-133.9194
2500.000000	96.487	-134.6201
2540.000000	96.596	-135.6015
2580.000000	96.687	-136.6290
2620.000000	96.765	-137.6513
2650.000000	96.814	-138.4163
2690.000000	96.866	-139.4592
2720.000000	96.896	-140.2303
2760.000000	96.923	-141.2424
2800.000000	96.936	-142.2413
2850.000000	96.936	-143.4443
2900.000000	96.916	-144.5772
2950.000000	96.881	-145.6627
3000.000000	96.826	-146.6625
3040.000000	96.777	-147.3835
3070.000000	96.735	-147.8976
3110.000000	96.667	-148.5389
3150.000000	96.595	-149.1014
3200.000000	96.496	-149.7338
3250.000000	96.394	-150.2503
3300.000000	96.288	-150.6793
3350.000000	96.181	-150.9966
3400.000000	96.074	-151.2313
3450.000000	95.976	-151.3964
3500.000000	95.875	-151.5148
3550.000000	95.780	-151.5446
3600.000000	95.687	-151.5224
3650.000000	95.600	-151.4366
3700.000000	95.520	-151.3492
3750.000000	95.444	-151.2047
3820.000000	95.336	-151.0334
3870.000000	95.260	-150.8586
3950.000000	95.143	-150.5271
4000.000000	95.067	-150.2641
4060.000000	94.980	-149.8904
4120.000000	94.905	-149.4726
4180.000000	94.840	-149.0022
4250.000000	94.769	-148.4274
4310.000000	94.718	-147.9823
4370.000000	94.678	-147.5064
4440.000000	94.636	-146.9578
4500.000000	94.603	-146.4979
4550.000000	94.579	-146.1043
4620.000000	94.551	-145.5745
4680.000000	94.533	-145.1147
4750.000000	94.516	-144.6193
4820.000000	94.503	-144.1279
4870.000000	94.494	-143.8072
4940.000000	94.478	-143.3782
5000.000000	94.468	-143.0307
5080.000000	94.447	-142.6446
5150.000000	94.432	-142.3552
5220.000000	94.412	-142.1025
5300.000000	94.385	-141.8369
5380.000000	94.354	-141.5816
5450.000000	94.312	-141.3626
5520.000000	94.256	-141.1719
5600.000000	94.179	-140.9175
5700.000000	94.065	-140.5494
5800.000000	93.944	-139.9115
5900.000000	93.864	-139.0440
6000.000000	93.834	-138.4904
6080.000000	93.783	-138.2289
6150.000000	93.719	-138.0121
6220.000000	93.655	-137.6149
6300.000000	93.576	-137.1920
6400.000000	93.483	-136.5112
6500.000000	93.399	-135.7611
6600.000000	93.326	-134.9336
6700.000000	93.269	-134.0571
6800.000000	93.231	-133.1626
6900.000000	93.245	-132.2294
7000.000000	93.325	-131.2513
7100.000000	93.441	-130.3698
7200.000000	93.588	-129.5965
7300.000000	93.746	-129.0009
7400.000000	93.949	-128.5573
7500.000000	94.167	-128.3510
7620.000000	94.475	-128.5537
7750.000000	94.927	-129.4150
7880.000000	95.196	-131.3160
8000.000000	95.427	-134.0252
8120.000000	95.554	-137.8721
8250.000000	95.510	-143.1487
8380.000000	95.184	-149.1077
8500.000000	94.603	-154.5264
8620.000000	93.775	-159.2001
8750.000000	92.638	-162.9117
8850.000000	91.664	-164.6616
9000.000000	90.142	-165.4687
9120.000000	88.934	-164.7192
9250.000000	87.652	-162.6296
9380.000000	86.422	-159.4096
9500.000000	85.338	-155.4277
9620.000000	84.359	-150.6743
9750.000000	83.348	-144.2360
9880.000000	82.549	-136.9988
10000.000000	82.008	-129.4787
10150.000000	81.704	-119.7448
10300.000000	81.788	-110.6955
10440.000000	82.105	-104.6286
10600.000000	82.564	-100.0887
10750.000000	82.830	-97.9041
10900.000000	82.874	-96.5500
11060.000000	82.703	-94.6366
11200.000000	82.466	-92.7990
11380.000000	82.109	-89.2883
11500.000000	81.861	-86.8131
11720.000000	81.460	-81.1690
11800.000000	81.350	-78.9393
12060.000000	81.033	-71.3006
12200.000000	80.956	-67.1357
12410.000000	80.905	-60.4896
12500.000000	80.950	-57.5447
12650.000000	81.044	-52.6547
12800.000000	81.217	-47.5850
13150.000000	81.962	-36.3367
13200.000000	82.096	-34.7500
13400.000000	82.743	-29.1842
13600.000000	83.545	-23.9433
13800.000000	84.583	-19.6176
14000.000000	85.788	-16.5512
14300.000000	87.964	-15.2217
14500.000000	89.588	-17.9875
14750.000000	91.480	-28.0544
15000.000000	92.296	-44.6562
15250.000000	91.604	-60.1194
15500.000000	90.147	-69.6420
15750.000000	88.651	-73.9056
16000.000000	87.441	-75.6697
16250.000000	86.467	-77.2726
16500.000000	85.507	-79.3946
16750.000000	84.428	-82.1218
17000.000000	83.118	-85.0740
17250.000000	81.553	-86.9868
17500.000000	79.718	-87.5104
17750.000000	77.805	-85.8704
18000.000000	75.811	-82.4414
18250.000000	73.998	-77.2234
18500.000000	72.012	-71.3049
18750.000000	70.221	-63.3377
19000.000000	68.617	-54.2822
19250.000000	67.094	-44.0906
19500.000000	65.732	-32.9467
19750.000000	64.583	-21.2689
