* Measurement data measured by REW V5.20.4
* Source: Microphone (2- KM-HIFI-384KHZ), MICROPHONE (Master Volume), R, volume: 0.250
* Format: 256k Log Swept Sine, 1 sweep at -6.0 dBFS with no timing reference
* Dated: 15 Apr, 2022 9:33:13 PM
* REW Settings:
*  C-weighting compensation: Off
*  Target level: 75.0 dB
* Note: 
* Measurement: Chu R
* Smoothing: None
* Frequency Step: 1/48 octave
* Start Frequency: 20.300 Hz
*
* Freq(Hz)	SPL(dB)	Phase(degrees)
20.299999	93.639	-174.4912
20.600000	93.638	-174.6904
20.900000	93.648	-174.7814
21.200001	93.671	-174.9562
21.400000	93.685	-175.1763
21.799999	93.694	-175.8551
22.000000	93.681	-176.2799
22.400000	93.616	-177.1566
22.700001	93.550	-177.6875
23.000000	93.494	-178.0431
23.299999	93.470	-178.2935
23.600000	93.482	-178.5480
24.000000	93.539	-179.0705
24.299999	93.582	-179.6490
24.700001	93.599	179.4629
25.000000	93.569	178.8904
25.400000	93.492	178.4568
25.799999	93.419	178.4425
26.200001	93.394	178.5915
26.500000	93.410	178.5870
26.900000	93.453	178.2640
27.200001	93.476	177.7970
27.600000	93.481	177.0432
28.000000	93.461	176.3843
28.500000	93.434	175.8506
29.000000	93.431	175.4901
29.500000	93.437	175.0610
30.000000	93.419	174.5607
30.400000	93.386	174.2062
30.700001	93.358	174.0010
31.100000	93.328	173.7693
31.500000	93.309	173.5140
32.000000	93.289	173.1122
32.500000	93.258	172.6779
33.000000	93.223	172.3074
33.500000	93.193	171.9690
34.000000	93.171	171.5776
34.500000	93.149	171.1234
35.000000	93.119	170.7026
35.500000	93.090	170.3721
36.000000	93.070	170.0924
36.500000	93.051	169.7955
37.000000	93.023	169.4868
37.500000	92.986	169.2037
38.200001	92.935	168.8592
38.700001	92.904	168.5987
39.500000	92.861	168.1529
40.000000	92.833	167.9036
40.599998	92.800	167.6276
41.200001	92.767	167.2808
41.799999	92.715	166.8097
42.500000	92.616	166.3642
43.099998	92.541	166.4311
43.700001	92.542	166.7409
44.400002	92.607	166.6419
45.000000	92.603	166.0402
45.500000	92.536	165.5946
46.200001	92.439	165.3439
46.799999	92.395	165.1462
47.500000	92.317	164.9512
48.200001	92.237	165.3088
48.700001	92.238	165.5220
49.400002	92.246	164.8513
50.000000	92.144	163.8776
50.799999	91.996	163.7243
51.500000	92.065	164.1435
52.200001	92.175	163.8728
53.000000	92.137	163.4416
53.799999	92.057	163.4244
54.500000	92.018	163.1460
55.200001	91.967	162.7680
56.000000	91.928	162.6218
57.000000	91.899	162.3387
58.000000	91.829	161.9900
59.000000	91.771	161.6999
60.000000	91.703	161.4341
60.799999	91.653	161.2888
61.500000	91.614	161.1229
62.200001	91.573	160.9566
63.000000	91.528	160.8087
64.000000	91.467	160.5702
65.000000	91.388	160.3448
66.000000	91.328	160.2495
67.000000	91.288	160.0667
68.000000	91.229	159.8582
69.000000	91.168	159.7150
70.000000	91.107	159.6057
71.000000	91.048	159.5247
72.000000	90.994	159.3747
73.000000	90.936	159.1987
74.000000	90.878	159.1357
75.000000	90.825	159.0392
76.199997	90.738	158.8875
77.500000	90.665	158.8511
78.800003	90.598	158.7103
80.000000	90.522	158.6023
81.199997	90.460	158.5660
82.500000	90.393	158.5107
83.800003	90.309	158.4306
85.000000	90.247	158.4156
86.199997	90.184	158.3728
87.500000	90.098	158.3690
88.500000	90.040	158.3386
90.000000	89.951	158.4583
91.199997	89.889	158.4563
92.500000	89.813	158.3821
93.800003	89.730	158.5060
95.000000	89.642	158.5270
96.199997	89.570	158.5367
97.500000	89.504	158.8456
98.800003	89.383	158.9721
100.000000	89.236	159.4536
101.500000	89.240	159.5685
103.000000	89.181	160.0658
104.400002	89.112	160.0246
106.000000	89.064	160.9749
107.500000	89.026	161.4119
109.000000	88.974	161.6666
110.599998	88.942	162.1932
112.000000	88.873	162.4404
113.800003	88.844	163.2014
115.000000	88.828	163.7820
117.199997	88.873	164.1503
118.000000	88.876	164.2067
120.599998	88.898	164.4305
122.000000	88.875	164.5846
124.099998	88.844	164.7712
125.000000	88.809	164.9549
126.500000	88.795	165.4851
128.000000	88.790	166.0874
131.500000	88.973	167.0178
132.000000	88.998	166.8904
134.000000	89.106	166.7592
136.000000	89.190	166.1613
138.000000	89.189	165.4449
140.000000	89.169	164.9698
143.000000	89.100	164.3503
145.000000	89.028	163.9851
147.500000	88.955	163.7437
150.000000	88.817	163.8546
152.500000	88.772	163.4248
155.000000	88.691	163.6101
157.500000	88.632	163.6318
160.000000	88.538	163.6581
162.500000	88.488	163.8200
165.000000	88.413	163.9015
167.500000	88.334	164.0160
170.000000	88.268	164.2672
172.500000	88.212	164.4088
175.000000	88.168	164.5890
177.500000	88.115	164.6653
180.000000	88.075	164.9346
182.500000	88.028	165.1141
185.000000	87.985	165.2522
187.500000	87.937	165.4539
190.000000	87.894	165.6076
192.500000	87.856	165.7947
195.000000	87.816	165.9921
197.500000	87.777	166.1767
200.000000	87.740	166.3895
203.000000	87.698	166.6285
206.000000	87.655	166.8865
209.000000	87.612	167.1696
212.000000	87.581	167.4295
214.000000	87.556	167.6120
218.000000	87.510	167.9936
220.000000	87.487	168.1588
224.000000	87.445	168.4970
227.000000	87.417	168.7108
230.000000	87.384	168.9576
233.000000	87.357	169.1690
236.000000	87.322	169.3891
240.000000	87.278	169.7006
243.000000	87.249	169.9569
247.000000	87.217	170.2895
250.000000	87.220	170.4311
254.000000	87.153	170.8221
258.000000	87.126	171.1351
262.000000	87.091	171.4478
265.000000	87.070	171.7138
269.000000	87.040	172.0173
272.000000	87.017	172.2614
276.000000	86.987	172.5741
280.000000	86.955	172.8965
285.000000	86.923	173.2910
290.000000	86.886	173.7012
295.000000	86.853	174.0927
300.000000	86.826	174.4944
304.000000	86.797	174.7918
307.000000	86.775	175.0352
311.000000	86.757	175.3218
315.000000	86.730	175.6330
320.000000	86.705	176.0273
325.000000	86.677	176.4092
330.000000	86.654	176.7658
335.000000	86.626	177.1431
340.000000	86.601	177.5341
345.000000	86.583	177.9086
350.000000	86.547	178.3772
355.000000	86.542	178.6122
360.000000	86.529	178.9888
365.000000	86.509	179.3477
370.000000	86.491	179.7040
375.000000	86.477	-179.8958
382.000000	86.457	-179.4301
387.000000	86.438	-179.0787
395.000000	86.414	-178.4956
400.000000	86.398	-178.1477
406.000000	86.387	-177.7241
412.000000	86.370	-177.3213
418.000000	86.352	-176.9089
425.000000	86.340	-176.4021
431.000000	86.325	-176.0096
437.000000	86.310	-175.6071
444.000000	86.293	-175.1045
450.000000	86.314	-174.6494
455.000000	86.273	-174.3573
462.000000	86.261	-173.8989
468.000000	86.246	-173.5004
475.000000	86.236	-173.0155
482.000000	86.226	-172.5582
487.000000	86.223	-172.2243
494.000000	86.214	-171.7461
500.000000	86.211	-171.3752
508.000000	86.201	-170.8282
515.000000	86.201	-170.3723
522.000000	86.196	-169.8876
530.000000	86.194	-169.3526
538.000000	86.192	-168.8294
545.000000	86.187	-168.3767
552.000000	86.184	-167.9095
560.000000	86.184	-167.3808
570.000000	86.185	-166.7346
580.000000	86.187	-166.0883
590.000000	86.197	-165.3955
600.000000	86.194	-164.7449
608.000000	86.202	-164.2472
615.000000	86.203	-163.7771
622.000000	86.206	-163.3044
630.000000	86.210	-162.8019
640.000000	86.222	-162.1241
650.000000	86.208	-161.4489
660.000000	86.236	-160.8092
670.000000	86.250	-160.1434
680.000000	86.259	-159.5223
690.000000	86.272	-158.8236
700.000000	86.290	-158.1709
710.000000	86.307	-157.5001
720.000000	86.326	-156.8292
730.000000	86.342	-156.1716
740.000000	86.368	-155.5358
750.000000	86.401	-155.0226
762.000000	86.424	-154.0934
775.000000	86.459	-153.2806
788.000000	86.503	-152.4250
800.000000	86.542	-151.6790
812.000000	86.588	-150.9164
825.000000	86.644	-150.1526
838.000000	86.705	-149.3443
850.000000	86.762	-148.5566
862.000000	86.830	-147.9659
875.000000	86.908	-147.2593
885.000000	86.977	-146.7665
900.000000	87.089	-146.1250
912.000000	87.189	-145.7437
925.000000	87.295	-145.6353
938.000000	87.337	-146.0855
950.000000	87.217	-146.1939
962.000000	87.116	-145.0141
975.000000	87.151	-143.5596
988.000000	87.259	-142.3773
1000.000000	87.381	-141.5966
1015.000000	87.524	-140.8954
1030.000000	87.650	-140.2990
1044.000000	87.766	-139.8466
1060.000000	87.889	-139.3698
1075.000000	88.004	-138.9458
1090.000000	88.098	-138.5921
1106.000000	88.194	-138.2518
1120.000000	88.276	-137.9260
1138.000000	88.377	-137.5882
1150.000000	88.438	-137.3190
1172.000000	88.554	-137.0300
1180.000000	88.592	-136.8950
1206.000000	88.715	-136.5250
1220.000000	88.806	-136.2794
1241.000000	88.942	-136.0238
1250.000000	89.000	-135.8862
1265.000000	89.093	-135.7310
1280.000000	89.186	-135.5379
1315.000000	89.395	-135.1188
1320.000000	89.423	-135.0540
1340.000000	89.536	-134.8325
1360.000000	89.694	-134.6107
1380.000000	89.813	-134.3528
1400.000000	89.927	-134.1015
1430.000000	90.098	-133.7608
1450.000000	90.208	-133.5124
1475.000000	90.347	-133.1968
1500.000000	90.482	-132.8785
1525.000000	90.613	-132.6020
1550.000000	90.724	-132.2692
1575.000000	90.832	-131.9437
1600.000000	90.936	-131.6718
1625.000000	91.044	-131.3543
1650.000000	91.150	-131.0503
1675.000000	91.259	-130.7537
1700.000000	91.373	-130.4574
1725.000000	91.487	-130.1754
1750.000000	91.606	-129.9084
1775.000000	91.721	-129.6914
1800.000000	91.839	-129.4820
1825.000000	91.959	-129.2798
1850.000000	92.074	-129.1218
1875.000000	92.191	-128.9215
1900.000000	92.304	-128.7633
1925.000000	92.425	-128.6499
1950.000000	92.544	-128.5050
1975.000000	92.656	-128.4445
2000.000000	92.770	-128.3478
2030.000000	92.908	-128.2831
2060.000000	93.046	-128.2561
2090.000000	93.183	-128.2644
2120.000000	93.316	-128.3156
2140.000000	93.403	-128.3293
2180.000000	93.579	-128.4619
2200.000000	93.659	-128.5544
2240.000000	93.827	-128.7218
2270.000000	93.950	-128.9184
2300.000000	94.068	-129.1297
2330.000000	94.186	-129.3387
2360.000000	94.300	-129.6057
2400.000000	94.445	-129.9773
2430.000000	94.552	-130.3036
2470.000000	94.685	-130.7688
2500.000000	94.785	-131.1312
2540.000000	94.905	-131.6598
2580.000000	95.018	-132.2282
2620.000000	95.126	-132.8007
2650.000000	95.198	-133.2473
2690.000000	95.292	-133.8706
2720.000000	95.355	-134.3682
2760.000000	95.431	-135.0449
2800.000000	95.495	-135.7187
2850.000000	95.559	-136.5853
2900.000000	95.606	-137.4267
2950.000000	95.635	-138.2338
3000.000000	95.652	-138.9776
3040.000000	95.652	-139.5048
3070.000000	95.649	-139.8867
3110.000000	95.646	-140.3135
3150.000000	95.650	-140.7262
3200.000000	95.653	-141.2502
3250.000000	95.651	-141.8208
3300.000000	95.636	-142.4258
3350.000000	95.603	-143.0104
3400.000000	95.560	-143.5354
3450.000000	95.506	-143.9605
3500.000000	95.448	-144.3277
3550.000000	95.385	-144.6275
3600.000000	95.318	-144.8418
3650.000000	95.252	-144.9530
3700.000000	95.187	-145.0202
3750.000000	95.127	-145.0066
3820.000000	95.048	-144.9389
3870.000000	94.999	-144.8571
3950.000000	94.926	-144.6806
4000.000000	94.879	-144.5570
4060.000000	94.827	-144.3861
4120.000000	94.777	-144.1887
4180.000000	94.728	-143.9605
4250.000000	94.677	-143.6450
4310.000000	94.635	-143.3447
4370.000000	94.605	-143.0227
4440.000000	94.573	-142.6396
4500.000000	94.551	-142.2924
4550.000000	94.540	-142.0109
4620.000000	94.524	-141.6220
4680.000000	94.513	-141.2976
4750.000000	94.511	-140.9670
4820.000000	94.506	-140.6432
4870.000000	94.501	-140.4180
4940.000000	94.493	-140.1224
5000.000000	94.480	-139.9071
5080.000000	94.473	-139.6439
5150.000000	94.458	-139.4249
5220.000000	94.442	-139.2608
5300.000000	94.421	-139.0115
5380.000000	94.392	-138.8353
5450.000000	94.361	-138.6358
5520.000000	94.313	-138.4378
5600.000000	94.259	-138.1920
5700.000000	94.185	-137.8175
5800.000000	94.119	-137.4098
5900.000000	94.047	-136.9837
6000.000000	93.973	-136.4903
6080.000000	93.906	-135.9758
6150.000000	93.871	-135.4235
6220.000000	93.879	-134.7674
6300.000000	93.904	-134.4742
6400.000000	93.892	-134.1576
6500.000000	93.863	-133.7056
6600.000000	93.853	-133.1591
6700.000000	93.863	-132.6011
6800.000000	93.892	-132.0555
6900.000000	93.978	-131.5375
7000.000000	94.133	-131.1637
7100.000000	94.306	-130.9107
7200.000000	94.509	-130.7429
7300.000000	94.743	-130.9574
7400.000000	94.986	-131.4333
7500.000000	95.237	-132.2404
7620.000000	95.556	-133.7245
7750.000000	95.994	-136.0707
7880.000000	96.226	-139.3114
8000.000000	96.388	-143.4669
8120.000000	96.450	-148.7112
8250.000000	96.282	-155.8605
8380.000000	95.737	-163.8449
8500.000000	94.825	-170.8383
8620.000000	93.586	-176.3040
8750.000000	92.014	-179.7441
8850.000000	90.759	179.2808
9000.000000	88.951	-179.9941
9120.000000	87.601	-177.9364
9250.000000	86.256	-174.7248
9380.000000	85.028	-170.6460
9500.000000	83.952	-166.5283
9620.000000	82.914	-161.9307
9750.000000	81.973	-156.4187
9880.000000	81.039	-150.6721
10000.000000	80.283	-144.9109
10150.000000	79.356	-137.1124
10300.000000	78.597	-128.6449
10440.000000	77.895	-120.2862
10600.000000	77.363	-108.7810
10750.000000	77.141	-97.5310
10900.000000	77.308	-86.0679
11060.000000	77.983	-75.2269
11200.000000	78.851	-68.3147
11380.000000	80.014	-63.5074
11500.000000	80.545	-62.3053
11720.000000	81.080	-61.2018
11800.000000	81.138	-60.7108
12060.000000	81.099	-57.0646
12200.000000	81.006	-54.8013
12410.000000	81.093	-49.7553
12500.000000	81.156	-47.4089
12650.000000	81.281	-43.1875
12800.000000	81.515	-38.8919
13150.000000	82.358	-28.8677
13200.000000	82.526	-27.3487
13400.000000	83.284	-22.2334
13600.000000	84.239	-17.4472
13800.000000	85.460	-13.5705
14000.000000	87.012	-11.5044
14300.000000	89.699	-13.0964
14500.000000	91.734	-20.1416
14750.000000	93.579	-39.1043
15000.000000	93.177	-62.2664
15250.000000	91.279	-76.5773
15500.000000	89.286	-82.9718
15750.000000	87.573	-85.3283
16000.000000	86.150	-86.2065
16250.000000	84.849	-86.8451
16500.000000	83.521	-87.6992
16750.000000	82.148	-87.7646
17000.000000	80.593	-87.6605
17250.000000	78.907	-85.9642
17500.000000	77.136	-82.7847
17750.000000	75.576	-78.5635
18000.000000	73.818	-72.9878
18250.000000	71.978	-66.1275
18500.000000	70.509	-58.4856
18750.000000	69.074	-50.7416
19000.000000	67.616	-41.8659
19250.000000	66.457	-31.6482
19500.000000	65.657	-19.9698
19750.000000	64.318	-8.2664
