* Measurement data measured by REW V5.20.4
* Source: Microphone (2- KM-HIFI-384KHZ), MICROPHONE (Master Volume), R, volume: 0.250
* Format: 256k Log Swept Sine, 1 sweep at -6.0 dBFS with no timing reference
* Dated: 24 Apr, 2022 12:40:37 AM
* REW Settings:
*  C-weighting compensation: Off
*  Target level: 75.0 dB
* Note: 
* Measurement: Chu 2 R
* Smoothing: None
* Frequency Step: 1/48 octave
* Start Frequency: 20.300 Hz
*
* Freq(Hz)	SPL(dB)	Phase(degrees)
20.299999	93.532	-172.0707
20.600000	93.539	-172.4609
20.900000	93.545	-172.7957
21.200001	93.551	-173.1645
21.400000	93.553	-173.4380
21.799999	93.549	-174.0310
22.000000	93.542	-174.3386
22.400000	93.523	-174.9471
22.700001	93.512	-175.3683
23.000000	93.511	-175.7725
23.299999	93.524	-176.2007
23.600000	93.546	-176.6664
24.000000	93.576	-177.3357
24.299999	93.589	-177.8216
24.700001	93.584	-178.3332
25.000000	93.568	-178.5544
25.400000	93.546	-178.6474
25.799999	93.540	-178.6485
26.200001	93.554	-178.7904
26.500000	93.568	-179.0877
26.900000	93.574	-179.7392
27.200001	93.563	179.6497
27.600000	93.529	178.8221
28.000000	93.486	178.1486
28.500000	93.443	177.6168
29.000000	93.420	177.3336
29.500000	93.400	177.1148
30.000000	93.358	176.8975
30.400000	93.313	176.7552
30.700001	93.281	176.6889
31.100000	93.259	176.6134
31.500000	93.272	176.4503
32.000000	93.319	175.9673
32.500000	93.351	175.1806
33.000000	93.323	174.3962
33.500000	93.241	173.9435
34.000000	93.163	173.8749
34.500000	93.133	173.8562
35.000000	93.130	173.5941
35.500000	93.114	173.1291
36.000000	93.081	172.7459
36.500000	93.058	172.5424
37.000000	93.060	172.3184
37.500000	93.055	171.8865
38.200001	92.970	171.2535
38.700001	92.882	171.1506
39.500000	92.829	171.3610
40.000000	92.829	171.3152
40.599998	92.797	171.1694
41.200001	92.745	171.3112
41.799999	92.742	171.5767
42.500000	92.792	171.3901
43.099998	92.806	170.8236
43.700001	92.782	170.3294
44.400002	92.757	169.9572
45.000000	92.744	169.5681
45.500000	92.721	169.1465
46.200001	92.671	168.5884
46.799999	92.637	168.2495
47.500000	92.626	167.9680
48.200001	92.624	167.6683
48.700001	92.606	167.4043
49.400002	92.543	167.0781
50.000000	92.483	166.9433
50.799999	92.445	166.7863
51.500000	92.428	166.4943
52.200001	92.393	166.2461
53.000000	92.353	166.0594
53.799999	92.308	165.6893
54.500000	92.249	165.3683
55.200001	92.204	165.2400
56.000000	92.180	165.0838
57.000000	92.116	164.7389
58.000000	92.037	164.5116
59.000000	91.988	164.2818
60.000000	91.939	164.0334
60.799999	91.891	163.8314
61.500000	91.847	163.6918
62.200001	91.816	163.5804
63.000000	91.787	163.4484
64.000000	91.742	163.3674
65.000000	91.693	163.1900
66.000000	91.615	162.9362
67.000000	91.569	162.8265
68.000000	91.526	162.5665
69.000000	91.454	162.5311
70.000000	91.410	162.4879
71.000000	91.353	162.2864
72.000000	91.305	162.1605
73.000000	91.260	161.9825
74.000000	91.209	161.8973
75.000000	91.163	161.8098
76.199997	91.103	161.7456
77.500000	91.036	161.6378
78.800003	90.975	161.5671
80.000000	90.917	161.4540
81.199997	90.878	161.3498
82.500000	90.806	161.2310
83.800003	90.748	161.2654
85.000000	90.683	161.1726
86.199997	90.641	161.2015
87.500000	90.575	161.1076
88.500000	90.530	161.1332
90.000000	90.468	161.0209
91.199997	90.410	161.0831
92.500000	90.360	161.0995
93.800003	90.301	161.0558
95.000000	90.251	161.0795
96.199997	90.207	161.2547
97.500000	90.163	161.1537
98.800003	90.094	161.2380
100.000000	90.072	161.1089
101.500000	89.957	161.1545
103.000000	89.953	161.3064
104.400002	89.806	161.7679
106.000000	89.825	161.4680
107.500000	89.734	161.5117
109.000000	89.660	161.6221
110.599998	89.634	161.6582
112.000000	89.597	161.8926
113.800003	89.504	161.8482
115.000000	89.470	161.9624
117.199997	89.396	162.1061
118.000000	89.358	161.9312
120.599998	89.254	162.2492
122.000000	89.206	162.2177
124.099998	89.091	162.5338
125.000000	89.048	162.5085
126.500000	89.003	162.6893
128.000000	88.938	162.6387
131.500000	88.655	163.3458
132.000000	88.646	163.7433
134.000000	88.519	164.6609
136.000000	88.378	165.0542
138.000000	88.373	166.0196
140.000000	88.319	168.2039
143.000000	88.439	169.7851
145.000000	88.811	170.7858
147.500000	89.052	170.8452
150.000000	89.182	171.4467
152.500000	89.031	169.5670
155.000000	89.118	168.4771
157.500000	89.069	169.1272
160.000000	89.070	167.7141
162.500000	88.940	168.0878
165.000000	88.896	167.7096
167.500000	88.907	167.8249
170.000000	88.797	167.4568
172.500000	88.741	167.3684
175.000000	88.683	167.3726
177.500000	88.627	167.5046
180.000000	88.574	167.6027
182.500000	88.536	167.6552
185.000000	88.474	167.9252
187.500000	88.468	167.9137
190.000000	88.400	168.0609
192.500000	88.352	168.3851
195.000000	88.321	168.3669
197.500000	88.283	168.6222
200.000000	88.253	168.8117
203.000000	88.211	169.0265
206.000000	88.172	169.2334
209.000000	88.132	169.4798
212.000000	88.099	169.7316
214.000000	88.079	169.8884
218.000000	88.022	170.2018
220.000000	87.999	170.3376
224.000000	87.952	170.6982
227.000000	87.914	170.9299
230.000000	87.897	171.1508
233.000000	87.852	171.3691
236.000000	87.817	171.5482
240.000000	87.782	171.9749
243.000000	87.766	172.1833
247.000000	87.715	172.5631
250.000000	87.679	173.0470
254.000000	87.668	173.1658
258.000000	87.645	173.5871
262.000000	87.610	173.9308
265.000000	87.606	174.2269
269.000000	87.585	174.4973
272.000000	87.579	174.6884
276.000000	87.557	174.9960
280.000000	87.530	175.2643
285.000000	87.494	175.6083
290.000000	87.464	175.9644
295.000000	87.431	176.3157
300.000000	87.406	176.7545
304.000000	87.386	177.0364
307.000000	87.364	177.2446
311.000000	87.347	177.5724
315.000000	87.319	177.8497
320.000000	87.295	178.2253
325.000000	87.269	178.5981
330.000000	87.251	178.9706
335.000000	87.225	179.3322
340.000000	87.200	179.7098
345.000000	87.184	-179.9334
350.000000	87.160	-179.5802
355.000000	87.162	-179.1966
360.000000	87.139	-178.8450
365.000000	87.126	-178.4811
370.000000	87.115	-178.0841
375.000000	87.104	-177.8047
382.000000	87.083	-177.3024
387.000000	87.060	-176.9355
395.000000	87.047	-176.3857
400.000000	87.034	-176.0210
406.000000	87.018	-175.5811
412.000000	87.009	-175.1965
418.000000	86.998	-174.8034
425.000000	86.984	-174.3062
431.000000	86.972	-173.9053
437.000000	86.959	-173.4902
444.000000	86.943	-173.0254
450.000000	86.969	-172.6879
455.000000	86.931	-172.2762
462.000000	86.917	-171.7978
468.000000	86.903	-171.4043
475.000000	86.898	-170.9215
482.000000	86.888	-170.4505
487.000000	86.887	-170.1196
494.000000	86.884	-169.6702
500.000000	86.876	-169.2544
508.000000	86.876	-168.7242
515.000000	86.877	-168.2466
522.000000	86.873	-167.8084
530.000000	86.871	-167.2930
538.000000	86.873	-166.7444
545.000000	86.875	-166.2905
552.000000	86.879	-165.7901
560.000000	86.873	-165.2762
570.000000	86.877	-164.5915
580.000000	86.887	-163.9437
590.000000	86.892	-163.3036
600.000000	86.901	-162.6306
608.000000	86.904	-162.0986
615.000000	86.913	-161.6121
622.000000	86.916	-161.1559
630.000000	86.918	-160.6153
640.000000	86.936	-159.9501
650.000000	86.950	-159.3904
660.000000	86.960	-158.6363
670.000000	86.972	-157.9443
680.000000	86.994	-157.2679
690.000000	87.004	-156.5903
700.000000	87.024	-155.8953
710.000000	87.044	-155.2516
720.000000	87.063	-154.5695
730.000000	87.088	-153.8883
740.000000	87.112	-153.2435
750.000000	87.163	-152.6250
762.000000	87.182	-151.7908
775.000000	87.228	-150.9097
788.000000	87.268	-150.0513
800.000000	87.322	-149.2838
812.000000	87.361	-148.5288
825.000000	87.425	-147.7492
838.000000	87.485	-146.9517
850.000000	87.561	-146.1748
862.000000	87.616	-145.5352
875.000000	87.690	-144.8260
885.000000	87.754	-144.2930
900.000000	87.846	-143.5937
912.000000	87.923	-143.0094
925.000000	88.011	-142.4958
938.000000	88.096	-142.0473
950.000000	88.159	-141.7182
962.000000	88.224	-141.5339
975.000000	88.268	-141.5730
988.000000	88.157	-141.4129
1000.000000	88.064	-139.3895
1015.000000	88.320	-137.3996
1030.000000	88.561	-136.7831
1044.000000	88.736	-136.4460
1060.000000	88.893	-136.1054
1075.000000	89.029	-135.8074
1090.000000	89.143	-135.5422
1106.000000	89.253	-135.2641
1120.000000	89.345	-135.0516
1138.000000	89.455	-134.8090
1150.000000	89.527	-134.6365
1172.000000	89.658	-134.3474
1180.000000	89.702	-134.2714
1206.000000	89.839	-133.9465
1220.000000	89.926	-133.8067
1241.000000	90.083	-133.5987
1250.000000	90.153	-133.4910
1265.000000	90.251	-133.3526
1280.000000	90.350	-133.1992
1315.000000	90.578	-132.8438
1320.000000	90.610	-132.7991
1340.000000	90.740	-132.6049
1360.000000	90.901	-132.3961
1380.000000	91.037	-132.2184
1400.000000	91.159	-131.9858
1430.000000	91.349	-131.6733
1450.000000	91.475	-131.4825
1475.000000	91.628	-131.2594
1500.000000	91.782	-130.9776
1525.000000	91.939	-130.7550
1550.000000	92.064	-130.4683
1575.000000	92.192	-130.2299
1600.000000	92.318	-130.0054
1625.000000	92.445	-129.7829
1650.000000	92.576	-129.5735
1675.000000	92.707	-129.3810
1700.000000	92.838	-129.1941
1725.000000	92.970	-129.0374
1750.000000	93.108	-128.8960
1775.000000	93.245	-128.7767
1800.000000	93.381	-128.6822
1825.000000	93.519	-128.6083
1850.000000	93.659	-128.5957
1875.000000	93.797	-128.5616
1900.000000	93.933	-128.5535
1925.000000	94.069	-128.6019
1950.000000	94.198	-128.6636
1975.000000	94.333	-128.7704
2000.000000	94.464	-128.8758
2030.000000	94.620	-129.0497
2060.000000	94.774	-129.2564
2090.000000	94.927	-129.5087
2120.000000	95.077	-129.8094
2140.000000	95.173	-130.0192
2180.000000	95.365	-130.5063
2200.000000	95.457	-130.7714
2240.000000	95.637	-131.3814
2270.000000	95.765	-131.8384
2300.000000	95.891	-132.3749
2330.000000	96.012	-132.9359
2360.000000	96.126	-133.5163
2400.000000	96.266	-134.3510
2430.000000	96.366	-134.9978
2470.000000	96.491	-135.9149
2500.000000	96.579	-136.6327
2540.000000	96.679	-137.5927
2580.000000	96.767	-138.6083
2620.000000	96.844	-139.6275
2650.000000	96.891	-140.3937
2690.000000	96.944	-141.4391
2720.000000	96.973	-142.2023
2760.000000	97.001	-143.2399
2800.000000	97.019	-144.2339
2850.000000	97.023	-145.4538
2900.000000	97.009	-146.6300
2950.000000	96.978	-147.7634
3000.000000	96.936	-148.8067
3040.000000	96.889	-149.6136
3070.000000	96.849	-150.1616
3110.000000	96.792	-150.8951
3150.000000	96.726	-151.5600
3200.000000	96.639	-152.3091
3250.000000	96.548	-153.0265
3300.000000	96.446	-153.6787
3350.000000	96.337	-154.2412
3400.000000	96.223	-154.7816
3450.000000	96.111	-155.2569
3500.000000	95.990	-155.6241
3550.000000	95.860	-155.9428
3600.000000	95.730	-156.1927
3650.000000	95.599	-156.3768
3700.000000	95.463	-156.4920
3750.000000	95.321	-156.5051
3820.000000	95.120	-156.3768
3870.000000	94.983	-156.1695
3950.000000	94.766	-155.6687
4000.000000	94.639	-155.2437
4060.000000	94.500	-154.6980
4120.000000	94.365	-154.0558
4180.000000	94.246	-153.3619
4250.000000	94.112	-152.4295
4310.000000	94.005	-151.6154
4370.000000	93.918	-150.7401
4440.000000	93.839	-149.6480
4500.000000	93.785	-148.6645
4550.000000	93.755	-147.8303
4620.000000	93.729	-146.6763
4680.000000	93.728	-145.7094
4750.000000	93.742	-144.6782
4820.000000	93.775	-143.6606
4870.000000	93.795	-143.0191
4940.000000	93.842	-142.1842
5000.000000	93.889	-141.6197
5080.000000	93.959	-140.9268
5150.000000	94.019	-140.4615
5220.000000	94.079	-140.1062
5300.000000	94.141	-139.8989
5380.000000	94.199	-139.7645
5450.000000	94.231	-139.7777
5520.000000	94.241	-139.8349
5600.000000	94.232	-139.9920
5700.000000	94.206	-140.2579
5800.000000	94.134	-140.5290
5900.000000	94.033	-140.7830
6000.000000	93.907	-140.8826
6080.000000	93.800	-140.9322
6150.000000	93.699	-140.8688
6220.000000	93.595	-140.8387
6300.000000	93.453	-140.6447
6400.000000	93.283	-140.2201
6500.000000	93.108	-139.6219
6600.000000	92.948	-138.8513
6700.000000	92.795	-137.8950
6800.000000	92.670	-136.8714
6900.000000	92.610	-135.6858
7000.000000	92.606	-134.3915
7100.000000	92.650	-133.0963
7200.000000	92.736	-131.9031
7300.000000	92.856	-130.7103
7400.000000	93.025	-129.7448
7500.000000	93.232	-128.9329
7620.000000	93.539	-128.4012
7750.000000	94.038	-128.6240
7880.000000	94.393	-130.0543
8000.000000	94.693	-132.7048
8120.000000	94.890	-136.8771
8250.000000	94.844	-142.9627
8380.000000	94.385	-149.8595
8500.000000	93.561	-155.6046
8620.000000	92.434	-159.8110
8750.000000	90.990	-162.0191
8850.000000	89.823	-162.0006
9000.000000	88.099	-159.4595
9120.000000	86.810	-155.3397
9250.000000	85.574	-149.0207
9380.000000	84.596	-140.9726
9500.000000	84.005	-132.1761
9620.000000	83.832	-123.4392
9750.000000	84.157	-114.8774
9880.000000	84.805	-109.1972
10000.000000	85.439	-106.9558
10150.000000	86.015	-107.4800
10300.000000	86.089	-109.4137
10440.000000	85.818	-111.1777
10600.000000	85.242	-111.6068
10750.000000	84.572	-110.5659
10900.000000	83.891	-108.2693
11060.000000	83.262	-105.0625
11200.000000	82.739	-101.4762
11380.000000	82.196	-96.4721
11500.000000	81.861	-92.7487
11720.000000	81.401	-85.5634
11800.000000	81.243	-82.8283
12060.000000	80.890	-73.9305
12200.000000	80.911	-69.0463
12410.000000	80.932	-61.8150
12500.000000	81.006	-58.6948
12650.000000	81.164	-53.5656
12800.000000	81.421	-48.6898
13150.000000	82.311	-37.8466
13200.000000	82.457	-36.3010
13400.000000	83.199	-30.9730
13600.000000	84.124	-26.4331
13800.000000	85.279	-23.1582
14000.000000	86.643	-21.8525
14300.000000	88.836	-24.7418
14500.000000	90.203	-31.7971
14750.000000	91.032	-45.4384
15000.000000	90.614	-59.1690
15250.000000	89.396	-67.9921
15500.000000	88.058	-72.1024
15750.000000	86.897	-73.4463
16000.000000	85.947	-74.1409
16250.000000	85.096	-74.9956
16500.000000	84.178	-76.5553
16750.000000	83.085	-78.1651
17000.000000	81.802	-79.5557
17250.000000	80.354	-79.6489
17500.000000	78.600	-78.5364
17750.000000	76.937	-75.9414
18000.000000	75.167	-72.0899
18250.000000	73.301	-66.7290
18500.000000	71.721	-60.1443
18750.000000	70.141	-52.4176
19000.000000	68.619	-43.7227
19250.000000	67.103	-32.4734
19500.000000	65.935	-22.3691
19750.000000	64.650	-11.1977
