* Measurement data measured by REW V5.20.4
* Source: Microphone (2- KM-HIFI-384KHZ), MICROPHONE (Master Volume), L, volume: 0.250
* Format: 256k Log Swept Sine, 1 sweep at -6.0 dBFS with no timing reference
* Dated: 15 Apr, 2022 9:36:46 PM
* REW Settings:
*  C-weighting compensation: Off
*  Target level: 75.0 dB
* Note: 
* Measurement: Chu L
* Smoothing: None
* Frequency Step: 1/48 octave
* Start Frequency: 20.300 Hz
*
* Freq(Hz)	SPL(dB)	Phase(degrees)
20.299999	93.771	-174.8649
20.600000	93.760	-175.3279
20.900000	93.747	-175.6759
21.200001	93.745	-176.0023
21.400000	93.752	-176.2371
21.799999	93.777	-176.7853
22.000000	93.791	-177.1107
22.400000	93.810	-177.8540
22.700001	93.809	-178.4170
23.000000	93.794	-178.9151
23.299999	93.772	-179.3167
23.600000	93.748	-179.6158
24.000000	93.725	-179.9061
24.299999	93.715	179.8856
24.700001	93.704	179.5535
25.000000	93.692	179.2526
25.400000	93.667	178.8087
25.799999	93.636	178.3892
26.200001	93.611	178.0243
26.500000	93.604	177.7778
26.900000	93.608	177.4637
27.200001	93.620	177.2111
27.600000	93.644	176.8303
28.000000	93.666	176.3972
28.500000	93.674	175.7844
29.000000	93.645	175.1558
29.500000	93.583	174.5961
30.000000	93.513	174.1600
30.400000	93.472	173.8386
30.700001	93.451	173.5678
31.100000	93.428	173.1319
31.500000	93.400	172.6461
32.000000	93.350	172.1198
32.500000	93.297	171.7864
33.000000	93.260	171.5614
33.500000	93.232	171.2778
34.000000	93.194	170.9404
34.500000	93.150	170.6818
35.000000	93.114	170.5350
35.500000	93.082	170.3671
36.000000	93.022	170.1666
36.500000	92.919	170.1701
37.000000	92.820	170.5902
37.500000	92.794	171.1948
38.200001	92.876	171.3857
38.700001	92.930	170.8733
39.500000	92.942	169.9507
40.000000	92.956	169.5869
40.599998	92.999	169.0798
41.200001	93.016	168.3930
41.799999	92.982	167.8495
42.500000	92.936	167.5803
43.099998	92.915	167.3643
43.700001	92.882	167.0056
44.400002	92.819	166.5767
45.000000	92.772	166.2836
45.500000	92.750	166.0228
46.200001	92.729	165.5775
46.799999	92.695	165.2122
47.500000	92.637	164.9654
48.200001	92.592	164.7861
48.700001	92.570	164.5215
49.400002	92.520	163.9876
50.000000	92.461	163.6786
50.799999	92.415	163.6031
51.500000	92.400	163.4727
52.200001	92.355	163.2034
53.000000	92.279	162.9926
53.799999	92.232	162.7890
54.500000	92.198	162.5161
55.200001	92.153	162.3060
56.000000	92.104	162.1639
57.000000	92.042	161.8933
58.000000	91.974	161.6318
59.000000	91.921	161.4221
60.000000	91.850	161.1748
60.799999	91.794	161.0373
61.500000	91.761	160.8824
62.200001	91.727	160.6960
63.000000	91.681	160.5494
64.000000	91.611	160.4070
65.000000	91.541	160.2801
66.000000	91.504	160.0580
67.000000	91.457	159.8355
68.000000	91.389	159.7921
69.000000	91.315	159.7132
70.000000	91.269	159.5624
71.000000	91.238	159.3162
72.000000	91.175	159.1957
73.000000	91.098	159.1531
74.000000	91.043	159.1308
75.000000	91.006	159.0159
76.199997	90.929	159.0272
77.500000	90.865	158.8073
78.800003	90.787	158.5912
80.000000	90.726	158.5612
81.199997	90.655	158.5817
82.500000	90.590	158.4272
83.800003	90.516	158.3829
85.000000	90.460	158.3547
86.199997	90.383	158.2322
87.500000	90.316	158.2014
88.500000	90.281	158.1038
90.000000	90.197	158.3074
91.199997	90.141	158.2245
92.500000	90.059	158.1603
93.800003	89.995	158.1748
95.000000	89.922	158.0677
96.199997	89.871	158.1671
97.500000	89.771	158.1273
98.800003	89.745	158.1588
100.000000	89.697	157.2315
101.500000	89.555	158.3598
103.000000	89.464	158.4932
104.400002	89.387	158.6202
106.000000	89.269	158.5680
107.500000	89.198	158.7823
109.000000	89.085	159.3143
110.599998	88.954	159.4446
112.000000	88.854	159.9935
113.800003	88.716	160.6016
115.000000	88.648	161.3635
117.199997	88.546	162.9919
118.000000	88.556	163.6124
120.599998	88.642	165.6101
122.000000	88.756	166.1209
124.099998	88.937	166.5679
125.000000	89.009	166.4536
126.500000	89.074	166.0740
128.000000	89.080	165.7237
131.500000	89.065	165.0692
132.000000	89.052	165.1403
134.000000	89.024	165.1978
136.000000	89.023	165.4432
138.000000	89.033	165.6371
140.000000	89.067	165.6171
143.000000	89.100	165.0634
145.000000	89.048	164.7106
147.500000	89.022	164.3524
150.000000	88.916	163.7244
152.500000	88.899	164.0027
155.000000	88.818	164.0166
157.500000	88.762	164.1304
160.000000	88.678	164.0805
162.500000	88.608	164.0750
165.000000	88.536	164.1393
167.500000	88.462	164.1660
170.000000	88.407	164.3072
172.500000	88.351	164.3891
175.000000	88.299	164.5058
177.500000	88.244	164.6982
180.000000	88.193	164.8687
182.500000	88.142	165.0299
185.000000	88.094	165.1904
187.500000	88.047	165.3495
190.000000	88.004	165.5300
192.500000	87.964	165.7336
195.000000	87.927	165.9491
197.500000	87.885	166.1199
200.000000	87.849	166.3030
203.000000	87.808	166.5529
206.000000	87.765	166.8184
209.000000	87.727	167.0375
212.000000	87.687	167.2997
214.000000	87.659	167.4637
218.000000	87.610	167.8384
220.000000	87.581	167.9766
224.000000	87.528	168.3486
227.000000	87.491	168.6279
230.000000	87.457	168.9281
233.000000	87.423	169.1988
236.000000	87.397	169.4887
240.000000	87.360	169.8546
243.000000	87.340	170.1052
247.000000	87.310	170.3940
250.000000	87.258	170.7618
254.000000	87.257	170.9448
258.000000	87.230	171.2800
262.000000	87.199	171.5804
265.000000	87.179	171.8013
269.000000	87.147	172.0996
272.000000	87.123	172.3477
276.000000	87.095	172.6861
280.000000	87.065	172.9933
285.000000	87.029	173.3913
290.000000	86.997	173.7641
295.000000	86.962	174.1646
300.000000	86.931	174.5414
304.000000	86.909	174.8589
307.000000	86.886	175.0911
311.000000	86.866	175.4053
315.000000	86.842	175.7039
320.000000	86.814	176.1014
325.000000	86.789	176.4797
330.000000	86.760	176.8509
335.000000	86.734	177.2296
340.000000	86.712	177.6076
345.000000	86.693	177.9587
350.000000	86.695	178.3478
355.000000	86.653	178.7200
360.000000	86.635	179.0907
365.000000	86.617	179.4509
370.000000	86.602	179.8230
375.000000	86.591	-179.8327
382.000000	86.565	-179.3067
387.000000	86.552	-178.9647
395.000000	86.524	-178.3970
400.000000	86.514	-178.0274
406.000000	86.493	-177.6026
412.000000	86.481	-177.1819
418.000000	86.469	-176.7611
425.000000	86.453	-176.2827
431.000000	86.438	-175.8765
437.000000	86.426	-175.4550
444.000000	86.405	-174.9714
450.000000	86.419	-174.6948
455.000000	86.387	-174.2167
462.000000	86.372	-173.7479
468.000000	86.362	-173.3346
475.000000	86.351	-172.8662
482.000000	86.339	-172.4061
487.000000	86.337	-172.0555
494.000000	86.329	-171.5977
500.000000	86.326	-171.1886
508.000000	86.319	-170.6471
515.000000	86.317	-170.1884
522.000000	86.314	-169.7017
530.000000	86.310	-169.1817
538.000000	86.307	-168.6582
545.000000	86.308	-168.1859
552.000000	86.306	-167.7425
560.000000	86.307	-167.1753
570.000000	86.312	-166.5347
580.000000	86.314	-165.8979
590.000000	86.316	-165.2240
600.000000	86.321	-164.5530
608.000000	86.326	-164.0465
615.000000	86.331	-163.5800
622.000000	86.334	-163.1187
630.000000	86.342	-162.5788
640.000000	86.349	-161.9224
650.000000	86.348	-161.3694
660.000000	86.367	-160.6092
670.000000	86.382	-159.9611
680.000000	86.399	-159.2550
690.000000	86.415	-158.6421
700.000000	86.428	-157.9806
710.000000	86.446	-157.3293
720.000000	86.464	-156.6838
730.000000	86.489	-156.0268
740.000000	86.509	-155.3977
750.000000	86.540	-154.6293
762.000000	86.578	-154.0180
775.000000	86.619	-153.2251
788.000000	86.661	-152.4490
800.000000	86.708	-151.7694
812.000000	86.758	-151.1364
825.000000	86.817	-150.5171
838.000000	86.878	-150.0945
850.000000	86.920	-150.0260
862.000000	86.848	-150.0699
875.000000	86.632	-148.8824
885.000000	86.631	-146.9623
900.000000	86.804	-145.1289
912.000000	86.937	-144.1950
925.000000	87.069	-143.3850
938.000000	87.207	-142.5557
950.000000	87.339	-142.1204
962.000000	87.465	-141.7509
975.000000	87.551	-141.5033
988.000000	87.636	-141.0854
1000.000000	87.720	-140.6922
1015.000000	87.822	-140.1829
1030.000000	87.924	-139.6894
1044.000000	88.026	-139.2652
1060.000000	88.140	-138.8163
1075.000000	88.242	-138.4062
1090.000000	88.332	-138.0439
1106.000000	88.431	-137.6946
1120.000000	88.506	-137.4169
1138.000000	88.604	-137.0702
1150.000000	88.663	-136.8275
1172.000000	88.781	-136.5052
1180.000000	88.820	-136.3700
1206.000000	88.948	-135.9625
1220.000000	89.039	-135.8124
1241.000000	89.174	-135.5095
1250.000000	89.232	-135.4167
1265.000000	89.337	-135.2022
1280.000000	89.433	-135.0029
1315.000000	89.648	-134.5908
1320.000000	89.679	-134.5347
1340.000000	89.802	-134.3244
1360.000000	89.959	-134.0977
1380.000000	90.083	-133.8295
1400.000000	90.199	-133.5867
1430.000000	90.378	-133.2505
1450.000000	90.496	-133.0227
1475.000000	90.640	-132.7594
1500.000000	90.785	-132.4454
1525.000000	90.926	-132.1044
1550.000000	91.044	-131.8331
1575.000000	91.160	-131.5718
1600.000000	91.272	-131.3046
1625.000000	91.391	-131.0031
1650.000000	91.501	-130.7532
1675.000000	91.620	-130.4975
1700.000000	91.739	-130.2277
1725.000000	91.862	-129.9889
1750.000000	91.983	-129.7680
1775.000000	92.106	-129.5731
1800.000000	92.230	-129.3884
1825.000000	92.353	-129.2223
1850.000000	92.481	-129.0709
1875.000000	92.604	-128.9531
1900.000000	92.731	-128.8559
1925.000000	92.851	-128.7049
1950.000000	92.974	-128.6282
1975.000000	93.102	-128.5824
2000.000000	93.228	-128.5324
2030.000000	93.382	-128.5389
2060.000000	93.536	-128.6167
2090.000000	93.685	-128.7381
2120.000000	93.826	-128.8589
2140.000000	93.924	-128.9761
2180.000000	94.111	-129.2631
2200.000000	94.200	-129.4217
2240.000000	94.373	-129.7815
2270.000000	94.504	-130.1024
2300.000000	94.628	-130.4580
2330.000000	94.749	-130.8045
2360.000000	94.866	-131.2202
2400.000000	95.014	-131.7982
2430.000000	95.119	-132.2625
2470.000000	95.252	-132.9329
2500.000000	95.345	-133.4480
2540.000000	95.463	-134.1645
2580.000000	95.567	-134.9176
2620.000000	95.662	-135.6787
2650.000000	95.727	-136.2549
2690.000000	95.805	-137.0549
2720.000000	95.856	-137.6599
2760.000000	95.919	-138.4719
2800.000000	95.970	-139.3001
2850.000000	96.018	-140.3407
2900.000000	96.044	-141.3727
2950.000000	96.056	-142.3607
3000.000000	96.045	-143.2892
3040.000000	96.030	-144.0159
3070.000000	96.010	-144.5324
3110.000000	95.978	-145.1619
3150.000000	95.936	-145.7302
3200.000000	95.874	-146.3719
3250.000000	95.809	-146.8922
3300.000000	95.742	-147.3036
3350.000000	95.683	-147.6500
3400.000000	95.625	-147.9642
3450.000000	95.568	-148.2255
3500.000000	95.516	-148.5075
3550.000000	95.458	-148.7832
3600.000000	95.391	-148.9708
3650.000000	95.326	-149.1548
3700.000000	95.261	-149.2604
3750.000000	95.192	-149.3160
3820.000000	95.104	-149.3207
3870.000000	95.042	-149.2567
3950.000000	94.947	-149.1647
4000.000000	94.890	-149.0421
4060.000000	94.830	-148.8891
4120.000000	94.771	-148.6796
4180.000000	94.717	-148.4699
4250.000000	94.663	-148.2676
4310.000000	94.616	-148.0305
4370.000000	94.576	-147.8499
4440.000000	94.534	-147.5807
4500.000000	94.496	-147.3482
4550.000000	94.469	-147.1566
4620.000000	94.432	-146.8820
4680.000000	94.400	-146.6496
4750.000000	94.374	-146.3950
4820.000000	94.347	-146.1692
4870.000000	94.321	-146.0319
4940.000000	94.283	-145.8447
5000.000000	94.245	-145.7184
5080.000000	94.196	-145.5559
5150.000000	94.149	-145.4221
5220.000000	94.090	-145.3367
5300.000000	94.014	-145.2118
5380.000000	93.927	-145.0707
5450.000000	93.831	-144.8780
5520.000000	93.713	-144.5997
5600.000000	93.568	-144.0115
5700.000000	93.456	-142.9416
5800.000000	93.396	-142.2542
5900.000000	93.286	-141.7008
6000.000000	93.172	-140.8747
6080.000000	93.099	-140.1233
6150.000000	93.045	-139.3707
6220.000000	93.019	-138.6290
6300.000000	92.988	-137.7938
6400.000000	92.977	-136.7399
6500.000000	92.987	-135.7221
6600.000000	93.023	-134.7646
6700.000000	93.089	-133.8547
6800.000000	93.183	-133.0514
6900.000000	93.337	-132.3546
7000.000000	93.570	-131.8631
7100.000000	93.820	-131.5854
7200.000000	94.122	-131.5268
7300.000000	94.447	-131.9333
7400.000000	94.787	-132.8010
7500.000000	95.133	-134.1855
7620.000000	95.552	-136.6658
7750.000000	96.063	-140.4482
7880.000000	96.291	-145.5961
8000.000000	96.371	-151.6643
8120.000000	96.199	-158.9020
8250.000000	95.622	-167.4682
8380.000000	94.582	-175.3534
8500.000000	93.276	179.0999
8620.000000	91.808	175.8479
8750.000000	90.173	174.8296
8850.000000	88.977	175.3922
9000.000000	87.306	177.7114
9120.000000	86.099	-179.3206
9250.000000	84.916	-175.7877
9380.000000	83.815	-171.6140
9500.000000	82.896	-167.4541
9620.000000	82.067	-163.1598
9750.000000	81.194	-158.5655
9880.000000	80.380	-153.4652
10000.000000	79.704	-148.6864
10150.000000	78.888	-142.7982
10300.000000	78.083	-135.9941
10440.000000	77.339	-130.2424
10600.000000	76.669	-122.1904
10750.000000	76.040	-114.5257
10900.000000	75.489	-105.6843
11060.000000	75.118	-95.6735
11200.000000	75.029	-86.7997
11380.000000	75.182	-76.0832
11500.000000	75.547	-68.9854
11720.000000	76.175	-59.3373
11800.000000	76.395	-56.3861
12060.000000	77.051	-47.6625
12200.000000	77.460	-43.3823
12410.000000	77.991	-37.5477
12500.000000	78.270	-35.2648
12650.000000	78.696	-31.1877
12800.000000	79.170	-27.1755
13150.000000	80.410	-18.4865
13200.000000	80.619	-17.4863
13400.000000	81.490	-13.3544
13600.000000	82.539	-10.0274
13800.000000	83.770	-7.6233
14000.000000	85.145	-7.1060
14300.000000	87.389	-11.0895
14500.000000	88.682	-17.8446
14750.000000	89.882	-30.9030
15000.000000	89.821	-46.4685
15250.000000	88.792	-58.3381
15500.000000	87.426	-65.7633
15750.000000	86.042	-70.0179
16000.000000	84.713	-72.6757
16250.000000	83.432	-74.9113
16500.000000	82.132	-76.2259
16750.000000	80.716	-77.5146
17000.000000	79.119	-77.7284
17250.000000	77.526	-76.6864
17500.000000	75.569	-74.2806
17750.000000	73.877	-70.2080
18000.000000	72.096	-64.2429
18250.000000	70.502	-58.7390
18500.000000	68.825	-50.1859
18750.000000	67.380	-40.9855
19000.000000	66.030	-31.7118
19250.000000	64.888	-22.0656
19500.000000	63.852	-12.0498
19750.000000	63.237	-0.7500
