* Measurement data measured by REW V5.20.4
* Source: Microphone (2- KM-HIFI-384KHZ), MICROPHONE (Master Volume), R, volume: 0.250
* Format: 256k Log Swept Sine, 1 sweep at -6.0 dBFS with no timing reference
* Dated: 4 May, 2022 9:51:39 AM
* REW Settings:
*  C-weighting compensation: Off
*  Target level: 75.0 dB
* Note: 
* Measurement: Chu 3 L
* Smoothing: None
* Frequency Step: 1/48 octave
* Start Frequency: 20.300 Hz
*
* Freq(Hz)	SPL(dB)	Phase(degrees)
20.299999	93.492	-176.9168
20.600000	93.471	-177.2934
20.900000	93.451	-177.5899
21.200001	93.446	-177.8608
21.400000	93.453	-178.0485
21.799999	93.486	-178.4928
22.000000	93.505	-178.7738
22.400000	93.530	-179.4749
22.700001	93.522	179.9509
23.000000	93.488	179.4327
23.299999	93.438	179.0458
23.600000	93.388	178.8181
24.000000	93.352	178.6907
24.299999	93.358	178.5845
24.700001	93.398	178.2517
25.000000	93.428	177.8173
25.400000	93.437	177.0768
25.799999	93.399	176.3801
26.200001	93.332	175.8843
26.500000	93.283	175.6294
26.900000	93.234	175.3278
27.200001	93.208	175.0285
27.600000	93.178	174.4941
28.000000	93.138	173.9281
28.500000	93.078	173.4489
29.000000	93.034	173.3493
29.500000	93.018	173.4072
30.000000	93.004	173.3480
30.400000	92.975	173.1748
30.700001	92.944	173.0131
31.100000	92.906	172.7800
31.500000	92.890	172.4922
32.000000	92.905	171.9759
32.500000	92.930	171.3112
33.000000	92.933	170.7189
33.500000	92.909	170.3632
34.000000	92.876	170.1760
34.500000	92.843	169.9096
35.000000	92.795	169.4446
35.500000	92.731	168.8690
36.000000	92.670	168.3531
36.500000	92.631	167.9603
37.000000	92.618	167.6680
37.500000	92.611	167.4480
38.200001	92.572	167.3167
38.700001	92.506	167.4276
39.500000	92.372	168.2023
40.000000	92.332	168.9709
40.599998	92.370	169.6213
41.200001	92.443	169.4395
41.799999	92.464	168.6448
42.500000	92.429	167.7474
43.099998	92.419	167.1773
43.700001	92.417	166.5862
44.400002	92.377	166.0699
45.000000	92.336	165.9895
45.500000	92.325	165.9418
46.200001	92.299	165.5399
46.799999	92.222	165.0859
47.500000	92.127	164.8331
48.200001	92.102	164.6073
48.700001	92.110	164.2618
49.400002	92.097	163.7312
50.000000	92.057	163.5854
50.799999	92.021	163.7851
51.500000	92.013	163.6805
52.200001	91.954	163.1700
53.000000	91.837	162.8878
53.799999	91.793	163.0064
54.500000	91.780	162.8721
55.200001	91.725	162.7257
56.000000	91.683	162.6040
57.000000	91.613	161.8473
58.000000	91.470	161.8456
59.000000	91.482	162.2021
60.000000	91.463	161.5188
60.799999	91.362	161.1062
61.500000	91.292	161.1805
62.200001	91.283	161.2803
63.000000	91.253	160.9555
64.000000	91.093	160.9315
65.000000	91.096	161.2375
66.000000	91.105	160.2798
67.000000	90.974	160.2768
68.000000	90.917	160.6594
69.000000	90.838	160.6114
70.000000	90.826	160.3956
71.000000	90.733	160.1751
72.000000	90.596	160.8413
73.000000	90.571	160.9442
74.000000	90.582	160.1654
75.000000	90.502	159.9536
76.199997	90.478	160.8452
77.500000	90.388	159.7983
78.800003	90.212	160.1505
80.000000	90.287	160.6213
81.199997	90.220	159.6942
82.500000	90.109	160.2393
83.800003	90.091	159.3597
85.000000	89.874	160.3790
86.199997	89.965	160.1746
87.500000	89.856	159.9005
88.500000	89.773	160.2391
90.000000	89.671	160.6467
91.199997	89.597	159.5389
92.500000	89.476	159.9103
93.800003	89.468	159.9673
95.000000	89.335	159.8697
96.199997	89.301	159.8319
97.500000	89.182	160.4352
98.800003	89.045	160.3296
100.000000	88.673	161.0943
101.500000	88.790	160.9426
103.000000	88.665	162.0184
104.400002	88.357	163.1056
106.000000	88.301	164.3740
107.500000	88.219	165.9208
109.000000	88.276	168.0790
110.599998	88.280	171.1302
112.000000	88.709	173.3179
113.800003	89.201	170.7346
115.000000	89.352	170.4348
117.199997	89.282	169.0245
118.000000	89.426	168.2900
120.599998	89.374	167.3083
122.000000	89.323	166.7856
124.099998	89.351	167.2465
125.000000	89.254	167.1909
126.500000	89.238	168.0910
128.000000	89.334	167.9871
131.500000	89.212	166.1953
132.000000	89.191	166.2079
134.000000	89.258	165.8461
136.000000	89.294	165.5387
138.000000	89.193	165.4955
140.000000	89.065	165.3141
143.000000	89.041	165.5847
145.000000	88.963	165.9964
147.500000	88.914	165.4259
150.000000	88.744	165.2812
152.500000	88.790	165.4166
155.000000	88.649	165.5283
157.500000	88.555	166.1337
160.000000	88.510	165.5504
162.500000	88.437	166.0307
165.000000	88.377	166.4492
167.500000	88.358	166.1793
170.000000	88.266	166.7757
172.500000	88.210	166.8505
175.000000	88.238	166.9752
177.500000	88.119	167.3191
180.000000	88.107	167.3933
182.500000	88.028	167.8213
185.000000	87.993	167.9716
187.500000	87.931	168.1496
190.000000	87.941	168.4164
192.500000	87.902	168.6824
195.000000	87.834	169.1676
197.500000	87.814	169.4346
200.000000	87.781	169.3959
203.000000	87.800	170.2790
206.000000	87.834	170.4299
209.000000	87.828	170.4573
212.000000	87.803	170.3915
214.000000	87.816	170.9028
218.000000	87.721	170.8376
220.000000	87.741	170.7280
224.000000	87.690	171.1663
227.000000	87.643	171.4048
230.000000	87.607	171.6243
233.000000	87.599	171.9096
236.000000	87.553	172.1458
240.000000	87.503	172.3752
243.000000	87.484	172.5946
247.000000	87.465	172.8972
250.000000	87.437	173.0858
254.000000	87.397	173.3598
258.000000	87.359	173.8520
262.000000	87.337	174.1602
265.000000	87.339	174.3978
269.000000	87.308	174.7303
272.000000	87.284	175.0028
276.000000	87.259	175.1769
280.000000	87.248	175.5185
285.000000	87.214	175.8532
290.000000	87.185	176.2464
295.000000	87.161	176.6737
300.000000	87.164	176.9160
304.000000	87.126	177.3532
307.000000	87.097	177.5258
311.000000	87.102	177.8400
315.000000	87.076	178.1495
320.000000	87.043	178.4729
325.000000	87.039	178.8248
330.000000	87.008	179.1905
335.000000	86.963	179.5468
340.000000	86.947	179.8855
345.000000	86.947	-179.7625
350.000000	86.944	-179.4677
355.000000	86.913	-179.0530
360.000000	86.909	-178.7233
365.000000	86.893	-178.3989
370.000000	86.867	-178.0304
375.000000	86.867	-177.6622
382.000000	86.857	-177.1967
387.000000	86.839	-176.8858
395.000000	86.828	-176.3312
400.000000	86.806	-176.0494
406.000000	86.803	-175.5515
412.000000	86.783	-175.1894
418.000000	86.775	-174.7520
425.000000	86.761	-174.2761
431.000000	86.757	-173.9490
437.000000	86.743	-173.5572
444.000000	86.732	-173.0288
450.000000	86.724	-172.6790
455.000000	86.732	-172.3137
462.000000	86.705	-171.8662
468.000000	86.698	-171.4662
475.000000	86.676	-171.0488
482.000000	86.683	-170.6011
487.000000	86.681	-170.2622
494.000000	86.677	-169.7993
500.000000	86.664	-169.4745
508.000000	86.666	-168.8936
515.000000	86.665	-168.4269
522.000000	86.658	-167.9862
530.000000	86.658	-167.5541
538.000000	86.658	-167.0282
545.000000	86.656	-166.5920
552.000000	86.663	-166.1183
560.000000	86.662	-165.5886
570.000000	86.664	-164.9603
580.000000	86.661	-164.3466
590.000000	86.664	-163.7254
600.000000	86.682	-163.0253
608.000000	86.685	-162.5382
615.000000	86.685	-162.1327
622.000000	86.685	-161.6496
630.000000	86.707	-161.1836
640.000000	86.708	-160.4982
650.000000	86.719	-159.8094
660.000000	86.723	-159.2171
670.000000	86.749	-158.5793
680.000000	86.759	-157.9768
690.000000	86.774	-157.2323
700.000000	86.794	-156.6759
710.000000	86.805	-156.0333
720.000000	86.824	-155.3763
730.000000	86.840	-154.6763
740.000000	86.871	-154.0516
750.000000	86.885	-153.4531
762.000000	86.932	-152.7339
775.000000	86.965	-151.7720
788.000000	87.003	-150.9609
800.000000	87.045	-150.3047
812.000000	87.085	-149.5644
825.000000	87.136	-148.6917
838.000000	87.187	-147.9265
850.000000	87.244	-147.2804
862.000000	87.310	-146.6493
875.000000	87.374	-145.9330
885.000000	87.436	-145.4028
900.000000	87.521	-144.6723
912.000000	87.611	-144.1985
925.000000	87.665	-143.8074
938.000000	87.671	-143.2462
950.000000	87.730	-142.1982
962.000000	87.835	-141.6115
975.000000	87.945	-141.1563
988.000000	88.029	-140.7150
1000.000000	88.115	-140.2597
1015.000000	88.207	-139.6844
1030.000000	88.313	-139.1835
1044.000000	88.406	-138.7709
1060.000000	88.522	-138.3317
1075.000000	88.610	-137.9548
1090.000000	88.709	-137.5664
1106.000000	88.802	-137.1916
1120.000000	88.876	-136.9225
1138.000000	88.969	-136.5980
1150.000000	89.035	-136.3648
1172.000000	89.138	-135.9848
1180.000000	89.172	-135.8551
1206.000000	89.294	-135.4529
1220.000000	89.371	-135.2669
1241.000000	89.508	-134.9725
1250.000000	89.572	-134.8612
1265.000000	89.665	-134.6160
1280.000000	89.757	-134.4105
1315.000000	89.967	-133.9212
1320.000000	89.996	-133.8715
1340.000000	90.103	-133.5907
1360.000000	90.266	-133.2516
1380.000000	90.395	-132.9035
1400.000000	90.530	-132.6572
1430.000000	90.738	-132.2637
1450.000000	90.866	-132.0461
1475.000000	91.019	-131.8736
1500.000000	91.164	-131.7559
1525.000000	91.297	-131.5488
1550.000000	91.406	-131.2598
1575.000000	91.510	-131.0264
1600.000000	91.620	-130.7774
1625.000000	91.728	-130.4812
1650.000000	91.831	-130.2268
1675.000000	91.941	-129.9696
1700.000000	92.057	-129.7278
1725.000000	92.172	-129.4915
1750.000000	92.287	-129.2483
1775.000000	92.405	-129.0378
1800.000000	92.523	-128.8603
1825.000000	92.642	-128.6534
1850.000000	92.761	-128.4794
1875.000000	92.875	-128.3696
1900.000000	92.992	-128.2185
1925.000000	93.110	-128.1234
1950.000000	93.222	-128.0595
1975.000000	93.340	-127.9641
2000.000000	93.453	-127.9099
2030.000000	93.580	-127.8712
2060.000000	93.708	-127.8078
2090.000000	93.834	-127.7646
2120.000000	93.961	-127.7563
2140.000000	94.050	-127.7027
2180.000000	94.227	-127.6661
2200.000000	94.314	-127.6180
2240.000000	94.516	-127.5374
2270.000000	94.681	-127.6239
2300.000000	94.853	-127.8562
2330.000000	95.011	-128.2122
2360.000000	95.155	-128.6765
2400.000000	95.332	-129.4251
2430.000000	95.449	-129.9824
2470.000000	95.588	-130.7042
2500.000000	95.683	-131.2903
2540.000000	95.795	-132.0534
2580.000000	95.895	-132.8222
2620.000000	95.975	-133.5998
2650.000000	96.034	-134.1541
2690.000000	96.100	-134.8411
2720.000000	96.148	-135.3286
2760.000000	96.215	-136.0063
2800.000000	96.278	-136.6868
2850.000000	96.342	-137.5794
2900.000000	96.387	-138.5310
2950.000000	96.413	-139.4240
3000.000000	96.434	-140.2667
3040.000000	96.443	-140.9583
3070.000000	96.439	-141.4768
3110.000000	96.429	-142.1265
3150.000000	96.407	-142.7440
3200.000000	96.369	-143.4714
3250.000000	96.319	-144.1441
3300.000000	96.261	-144.7023
3350.000000	96.198	-145.2288
3400.000000	96.132	-145.6781
3450.000000	96.060	-146.0297
3500.000000	95.985	-146.3136
3550.000000	95.910	-146.5299
3600.000000	95.831	-146.6812
3650.000000	95.756	-146.7780
3700.000000	95.679	-146.8052
3750.000000	95.605	-146.7800
3820.000000	95.509	-146.7098
3870.000000	95.443	-146.6061
3950.000000	95.334	-146.3039
4000.000000	95.274	-146.0408
4060.000000	95.205	-145.6720
4120.000000	95.151	-145.2904
4180.000000	95.118	-144.8831
4250.000000	95.079	-144.4207
4310.000000	95.045	-144.0497
4370.000000	95.018	-143.6665
4440.000000	94.995	-143.2517
4500.000000	94.972	-142.8652
4550.000000	94.957	-142.5521
4620.000000	94.944	-142.0797
4680.000000	94.934	-141.6991
4750.000000	94.938	-141.2983
4820.000000	94.939	-140.9235
4870.000000	94.941	-140.6486
4940.000000	94.943	-140.3141
5000.000000	94.936	-140.0556
5080.000000	94.933	-139.7139
5150.000000	94.931	-139.4614
5220.000000	94.927	-139.1823
5300.000000	94.922	-138.8796
5380.000000	94.912	-138.5384
5450.000000	94.909	-138.2583
5520.000000	94.897	-138.0139
5600.000000	94.879	-137.7633
5700.000000	94.858	-137.4726
5800.000000	94.837	-137.2162
5900.000000	94.814	-136.9625
6000.000000	94.783	-136.6888
6080.000000	94.756	-136.4448
6150.000000	94.747	-136.2347
6220.000000	94.731	-136.0859
6300.000000	94.720	-135.8181
6400.000000	94.716	-135.4460
6500.000000	94.747	-135.1273
6600.000000	94.782	-134.9599
6700.000000	94.819	-134.8625
6800.000000	94.859	-134.8450
6900.000000	94.939	-134.9070
7000.000000	95.086	-134.9998
7100.000000	95.238	-135.2456
7200.000000	95.410	-135.6433
7300.000000	95.604	-136.2358
7400.000000	95.803	-137.1225
7500.000000	96.020	-138.3089
7620.000000	96.304	-140.2611
7750.000000	96.728	-143.3180
7880.000000	96.912	-147.8105
8000.000000	96.986	-153.6230
8120.000000	96.767	-160.7475
8250.000000	96.074	-168.9014
8380.000000	94.915	-175.7677
8500.000000	93.612	179.9896
8620.000000	92.233	177.8250
8750.000000	90.735	177.5255
8850.000000	89.626	178.3019
9000.000000	88.086	-179.3678
9120.000000	86.962	-176.6186
9250.000000	85.823	-173.1446
9380.000000	84.779	-169.1599
9500.000000	83.822	-165.0805
9620.000000	83.014	-160.8638
9750.000000	82.138	-156.1450
9880.000000	81.332	-151.0218
10000.000000	80.650	-146.2860
10150.000000	79.818	-139.9534
10300.000000	79.015	-133.4869
10440.000000	78.438	-127.0179
10600.000000	77.700	-118.9826
10750.000000	77.075	-110.9221
10900.000000	76.550	-102.4893
11060.000000	76.083	-92.5547
11200.000000	75.843	-82.2533
11380.000000	75.881	-68.6643
11500.000000	76.323	-59.2377
11720.000000	77.721	-45.0817
11800.000000	78.413	-41.7491
12060.000000	80.340	-37.4280
12200.000000	80.956	-37.1532
12410.000000	81.581	-36.3031
12500.000000	81.749	-35.5998
12650.000000	81.988	-33.5574
12800.000000	82.257	-30.9998
13150.000000	83.150	-23.6402
13200.000000	83.345	-22.6063
13400.000000	84.152	-18.4145
13600.000000	85.230	-15.0093
13800.000000	86.657	-13.1810
14000.000000	88.334	-13.7221
14300.000000	91.081	-23.1240
14500.000000	92.444	-37.6146
14750.000000	92.234	-60.0423
15000.000000	90.341	-74.8032
15250.000000	88.262	-81.1499
15500.000000	86.493	-82.7970
15750.000000	84.946	-82.6522
16000.000000	83.571	-81.8064
16250.000000	82.226	-80.9577
16500.000000	80.852	-79.4186
16750.000000	79.407	-76.8643
17000.000000	77.995	-73.6812
17250.000000	76.627	-68.6189
17500.000000	75.191	-63.2208
17750.000000	73.968	-57.5926
18000.000000	72.590	-51.3350
18250.000000	71.510	-44.9195
18500.000000	70.145	-37.4893
18750.000000	68.884	-29.4302
19000.000000	67.949	-21.6591
19250.000000	66.838	-13.4264
19500.000000	65.644	-3.8933
19750.000000	64.799	6.2684
