* Measurement data measured by REW V5.20.4
* Source: Microphone (2- KM-HIFI-384KHZ), MICROPHONE (Master Volume), R, volume: 0.250
* Format: 256k Log Swept Sine, 1 sweep at -6.0 dBFS with no timing reference
* Dated: 21 Mar, 2022 8:52:48 PM
* REW Settings:
*  C-weighting compensation: Off
*  Target level: 75.0 dB
* Note: 
* Measurement: DQ6 R
* Smoothing: None
* Frequency Step: 1/48 octave
* Start Frequency: 20.000 Hz
*
* Freq(Hz)	SPL(dB)	Phase(degrees)
20.000000	90.026	-138.9587
20.299999	90.088	-139.4368
20.600000	90.151	-139.8888
20.900000	90.216	-140.3241
21.200001	90.283	-140.7683
21.400000	90.328	-141.0705
21.799999	90.415	-141.6803
22.000000	90.457	-141.9860
22.400000	90.536	-142.5997
22.700001	90.592	-143.0406
23.000000	90.646	-143.4623
23.299999	90.701	-143.8768
23.600000	90.755	-144.2857
24.000000	90.830	-144.8376
24.299999	90.885	-145.2701
24.700001	90.953	-145.8659
25.000000	90.999	-146.3131
25.400000	91.054	-146.8917
25.799999	91.104	-147.4183
26.200001	91.155	-147.9028
26.500000	91.196	-148.2575
26.900000	91.251	-148.7367
27.200001	91.291	-149.1161
27.600000	91.340	-149.6452
28.000000	91.384	-150.1708
28.500000	91.434	-150.7985
29.000000	91.483	-151.3873
29.500000	91.533	-151.9713
30.000000	91.580	-152.5511
30.400000	91.618	-153.0062
30.700001	91.646	-153.3319
31.100000	91.683	-153.7517
31.500000	91.721	-154.1705
32.000000	91.768	-154.7045
32.500000	91.810	-155.2502
33.000000	91.847	-155.7784
33.500000	91.878	-156.2828
34.000000	91.909	-156.7682
34.500000	91.945	-157.2566
35.000000	91.978	-157.7437
35.500000	92.009	-158.2234
36.000000	92.040	-158.6851
36.500000	92.070	-159.1365
37.000000	92.101	-159.5833
37.500000	92.133	-160.0384
38.200001	92.173	-160.6815
38.700001	92.194	-161.1355
39.500000	92.223	-161.8178
40.000000	92.241	-162.2218
40.599998	92.263	-162.7055
41.200001	92.282	-163.1852
41.799999	92.298	-163.6472
42.500000	92.317	-164.1659
43.099998	92.334	-164.6063
43.700001	92.351	-165.0482
44.400002	92.370	-165.5806
45.000000	92.381	-166.0497
45.500000	92.386	-166.4140
46.200001	92.397	-166.8549
46.799999	92.415	-167.2398
47.500000	92.430	-167.7321
48.200001	92.441	-168.1384
48.700001	92.461	-168.3964
49.400002	92.502	-168.9288
50.000000	92.509	-169.5365
50.799999	92.471	-170.1186
51.500000	92.458	-170.3346
52.200001	92.476	-170.6311
53.000000	92.485	-171.1408
53.799999	92.475	-171.5730
54.500000	92.472	-171.8746
55.200001	92.480	-172.1939
56.000000	92.490	-172.6594
57.000000	92.480	-173.2251
58.000000	92.481	-173.7161
59.000000	92.461	-174.2786
60.000000	92.453	-174.6398
60.799999	92.457	-175.2212
61.500000	92.406	-175.6604
62.200001	92.372	-175.6614
63.000000	92.419	-175.8088
64.000000	92.436	-176.6633
65.000000	92.398	-177.1544
66.000000	92.392	-177.5619
67.000000	92.385	-177.9196
68.000000	92.393	-178.3507
69.000000	92.373	-178.7967
70.000000	92.360	-179.0987
71.000000	92.350	-179.4845
72.000000	92.336	-179.8586
73.000000	92.317	179.7281
74.000000	92.293	179.3908
75.000000	92.283	179.0355
76.199997	92.260	178.5763
77.500000	92.238	178.1693
78.800003	92.217	177.7444
80.000000	92.197	177.3602
81.199997	92.171	176.9726
82.500000	92.146	176.5907
83.800003	92.118	176.2195
85.000000	92.100	175.8798
86.199997	92.073	175.5244
87.500000	92.042	175.1700
88.500000	92.018	174.9241
90.000000	91.983	174.5365
91.199997	91.957	174.2717
92.500000	91.932	173.9097
93.800003	91.900	173.6109
95.000000	91.873	173.3026
96.199997	91.844	173.0371
97.500000	91.816	172.7265
98.800003	91.785	172.4451
100.000000	91.753	172.1585
101.500000	91.717	171.9803
103.000000	91.701	171.5848
104.400002	91.653	171.2676
106.000000	91.607	171.0346
107.500000	91.575	170.6857
109.000000	91.537	170.4606
110.599998	91.472	170.1397
112.000000	91.457	170.0414
113.800003	91.401	169.7275
115.000000	91.371	169.5136
117.199997	91.306	169.1828
118.000000	91.282	169.0862
120.599998	91.216	168.7084
122.000000	91.181	168.5611
124.099998	91.121	168.3514
125.000000	91.110	168.2398
126.500000	91.065	167.9448
128.000000	91.018	167.7618
131.500000	90.915	167.4461
132.000000	90.906	167.4261
134.000000	90.856	167.1606
136.000000	90.802	166.9831
138.000000	90.743	166.8246
140.000000	90.686	166.6764
143.000000	90.600	166.4653
145.000000	90.550	166.3157
147.500000	90.494	166.1565
150.000000	90.493	166.0544
152.500000	90.357	166.0566
155.000000	90.278	165.9987
157.500000	90.198	165.8528
160.000000	90.124	165.7632
162.500000	90.063	165.7457
165.000000	89.962	165.8455
167.500000	89.879	166.0120
170.000000	89.823	166.2433
172.500000	89.806	166.4836
175.000000	89.810	166.6404
177.500000	89.810	166.7335
180.000000	89.808	166.4595
182.500000	89.773	166.1952
185.000000	89.717	165.9459
187.500000	89.685	165.8767
190.000000	89.626	165.6660
192.500000	89.573	165.5167
195.000000	89.528	165.4453
197.500000	89.476	165.3911
200.000000	89.422	165.3469
203.000000	89.365	165.3418
206.000000	89.325	165.5515
209.000000	89.242	165.3863
212.000000	89.181	165.3589
214.000000	89.131	165.2740
218.000000	89.060	165.4338
220.000000	89.013	165.4344
224.000000	88.936	165.5518
227.000000	88.880	165.6167
230.000000	88.813	165.7181
233.000000	88.758	165.7724
236.000000	88.703	165.8890
240.000000	88.623	166.0047
243.000000	88.572	166.1010
247.000000	88.500	166.3208
250.000000	88.408	166.4276
254.000000	88.396	166.6124
258.000000	88.339	166.8325
262.000000	88.276	166.9595
265.000000	88.230	167.0759
269.000000	88.173	167.3211
272.000000	88.130	167.4472
276.000000	88.065	167.6527
280.000000	88.001	167.8503
285.000000	87.928	168.0874
290.000000	87.849	168.3938
295.000000	87.773	168.6832
300.000000	87.698	168.9957
304.000000	87.641	169.2227
307.000000	87.600	169.4116
311.000000	87.543	169.6876
315.000000	87.483	169.9456
320.000000	87.413	170.2723
325.000000	87.342	170.6297
330.000000	87.270	171.0095
335.000000	87.202	171.3993
340.000000	87.132	171.8281
345.000000	87.060	172.2790
350.000000	86.982	172.5282
355.000000	86.932	173.3738
360.000000	86.881	174.1049
365.000000	86.864	174.8397
370.000000	86.874	175.4582
375.000000	86.892	175.8082
382.000000	86.892	176.1212
387.000000	86.869	176.2959
395.000000	86.813	176.6744
400.000000	86.778	176.9240
406.000000	86.726	177.2780
412.000000	86.675	177.7074
418.000000	86.628	178.1239
425.000000	86.574	178.6030
431.000000	86.523	179.0710
437.000000	86.483	179.5373
444.000000	86.432	-179.9622
450.000000	86.378	-179.0700
455.000000	86.355	-179.0669
462.000000	86.313	-178.4943
468.000000	86.281	-178.0164
475.000000	86.238	-177.4518
482.000000	86.200	-176.8622
487.000000	86.177	-176.4703
494.000000	86.143	-175.8437
500.000000	86.119	-175.4158
508.000000	86.087	-174.7103
515.000000	86.057	-174.1263
522.000000	86.033	-173.5337
530.000000	86.004	-172.8498
538.000000	85.979	-172.1651
545.000000	85.960	-171.5904
552.000000	85.936	-170.9725
560.000000	85.921	-170.2529
570.000000	85.898	-169.4328
580.000000	85.877	-168.5519
590.000000	85.860	-167.6725
600.000000	85.843	-166.8008
608.000000	85.834	-166.1008
615.000000	85.826	-165.5246
622.000000	85.817	-164.8961
630.000000	85.810	-164.2291
640.000000	85.802	-163.3168
650.000000	85.833	-162.2781
660.000000	85.797	-161.5782
670.000000	85.802	-160.6956
680.000000	85.801	-159.8111
690.000000	85.808	-158.9187
700.000000	85.813	-158.0409
710.000000	85.830	-157.1715
720.000000	85.843	-156.3109
730.000000	85.860	-155.4306
740.000000	85.886	-154.5919
750.000000	85.912	-153.9476
762.000000	85.946	-152.6846
775.000000	85.991	-151.5754
788.000000	86.034	-150.5284
800.000000	86.074	-149.5959
812.000000	86.113	-148.5481
825.000000	86.199	-147.3975
838.000000	86.290	-146.4465
850.000000	86.402	-145.5395
862.000000	86.477	-145.0664
875.000000	86.577	-144.5996
885.000000	86.629	-144.4833
900.000000	86.605	-144.4497
912.000000	86.498	-143.8304
925.000000	86.430	-142.3655
938.000000	86.452	-140.7653
950.000000	86.508	-139.3365
962.000000	86.630	-138.1615
975.000000	86.753	-137.1032
988.000000	86.878	-136.1326
1000.000000	86.995	-135.3048
1015.000000	87.142	-134.3841
1030.000000	87.290	-133.4831
1044.000000	87.422	-132.7579
1060.000000	87.574	-131.9548
1075.000000	87.712	-131.2350
1090.000000	87.843	-130.5870
1106.000000	87.978	-129.8960
1120.000000	88.086	-129.3679
1138.000000	88.235	-128.6798
1150.000000	88.309	-128.1646
1172.000000	88.501	-127.5051
1180.000000	88.561	-127.2452
1206.000000	88.763	-126.4343
1220.000000	88.885	-126.0249
1241.000000	89.097	-125.3991
1250.000000	89.194	-125.1131
1265.000000	89.327	-124.7503
1280.000000	89.474	-124.3328
1315.000000	89.811	-123.4309
1320.000000	89.859	-123.3041
1340.000000	90.053	-122.8071
1360.000000	90.287	-122.3741
1380.000000	90.492	-121.8968
1400.000000	90.696	-121.4645
1430.000000	91.002	-120.8163
1450.000000	91.211	-120.3777
1475.000000	91.479	-120.0289
1500.000000	91.743	-119.6122
1525.000000	92.017	-119.2369
1550.000000	92.272	-118.8732
1575.000000	92.517	-118.6622
1600.000000	92.769	-118.4478
1625.000000	93.030	-118.3138
1650.000000	93.304	-118.1895
1675.000000	93.567	-118.2601
1700.000000	93.842	-118.3537
1725.000000	94.118	-118.5469
1750.000000	94.398	-118.8198
1775.000000	94.680	-119.2521
1800.000000	94.963	-119.7525
1825.000000	95.246	-120.3754
1850.000000	95.520	-121.1087
1875.000000	95.799	-122.0286
1900.000000	96.071	-123.0744
1925.000000	96.329	-124.2190
1950.000000	96.579	-125.5260
1975.000000	96.806	-126.9664
2000.000000	97.024	-128.5240
2030.000000	97.257	-130.5802
2060.000000	97.459	-132.7987
2090.000000	97.623	-135.1385
2120.000000	97.746	-137.5781
2140.000000	97.807	-139.2375
2180.000000	97.866	-142.5826
2200.000000	97.866	-144.2623
2240.000000	97.814	-147.5039
2270.000000	97.727	-149.8220
2300.000000	97.607	-152.0145
2330.000000	97.460	-154.0189
2360.000000	97.284	-155.8913
2400.000000	97.021	-158.0622
2430.000000	96.802	-159.4905
2470.000000	96.495	-161.1021
2500.000000	96.257	-162.1078
2540.000000	95.936	-163.1860
2580.000000	95.611	-163.9998
2620.000000	95.288	-164.5380
2650.000000	95.047	-164.8084
2690.000000	94.738	-164.9565
2720.000000	94.511	-164.9571
2760.000000	94.218	-164.8144
2800.000000	93.936	-164.5133
2850.000000	93.601	-163.9193
2900.000000	93.278	-163.1693
2950.000000	92.980	-162.2506
3000.000000	92.690	-161.1229
3040.000000	92.479	-160.1435
3070.000000	92.324	-159.3492
3110.000000	92.130	-158.1792
3150.000000	91.943	-156.9171
3200.000000	91.752	-155.1617
3250.000000	91.589	-153.3324
3300.000000	91.473	-151.5980
3350.000000	91.366	-149.9519
3400.000000	91.282	-148.2939
3450.000000	91.199	-146.6503
3500.000000	91.124	-145.0090
3550.000000	91.054	-143.3195
3600.000000	91.009	-141.5823
3650.000000	90.977	-139.7807
3700.000000	90.954	-138.0371
3750.000000	90.949	-136.1790
3820.000000	90.971	-133.7046
3870.000000	91.004	-131.8829
3950.000000	91.084	-128.9974
4000.000000	91.160	-127.2374
4060.000000	91.268	-125.1585
4120.000000	91.398	-123.0882
4180.000000	91.555	-121.1080
4250.000000	91.767	-118.8888
4310.000000	91.966	-117.0394
4370.000000	92.202	-115.2855
4440.000000	92.497	-113.3986
4500.000000	92.774	-111.9569
4550.000000	93.019	-110.8100
4620.000000	93.388	-109.3971
4680.000000	93.727	-108.4061
4750.000000	94.145	-107.4840
4820.000000	94.584	-106.8646
4870.000000	94.910	-106.6094
4940.000000	95.380	-106.5861
5000.000000	95.796	-106.9444
5080.000000	96.364	-108.1592
5150.000000	96.839	-109.9323
5220.000000	97.261	-112.3998
5300.000000	97.636	-116.0473
5380.000000	97.857	-120.2503
5450.000000	97.897	-124.2015
5520.000000	97.775	-128.1031
5600.000000	97.460	-132.1470
5700.000000	96.831	-136.1474
5800.000000	95.917	-138.0900
5900.000000	95.085	-134.7952
6000.000000	95.601	-133.8265
6080.000000	95.135	-136.6622
6150.000000	94.660	-136.8486
6220.000000	94.232	-136.1827
6300.000000	93.818	-134.7875
6400.000000	93.394	-132.4875
6500.000000	93.061	-129.7403
6600.000000	92.824	-126.7731
6700.000000	92.682	-123.6140
6800.000000	92.624	-120.3440
6900.000000	92.695	-117.0200
7000.000000	92.893	-113.8247
7100.000000	93.203	-110.7769
7200.000000	93.603	-107.9851
7300.000000	94.104	-105.6229
7400.000000	94.696	-103.7174
7500.000000	95.389	-102.4227
7620.000000	96.369	-102.0619
7750.000000	97.697	-103.9691
7880.000000	98.885	-109.6189
8000.000000	99.730	-119.1333
8120.000000	99.872	-131.7577
8250.000000	99.027	-144.8255
8380.000000	97.511	-153.7732
8500.000000	95.940	-158.1075
8620.000000	94.420	-159.5224
8750.000000	92.878	-158.6914
8850.000000	91.818	-156.8658
9000.000000	90.420	-152.8356
9120.000000	89.479	-148.7957
9250.000000	88.596	-143.9392
9380.000000	87.870	-138.6561
9500.000000	87.328	-133.5242
9620.000000	86.896	-128.3347
9750.000000	86.520	-122.6080
9880.000000	86.310	-116.9208
10000.000000	86.200	-111.5582
10150.000000	86.236	-105.1375
10300.000000	86.443	-98.9365
10440.000000	86.839	-93.6456
10600.000000	87.527	-88.0112
10750.000000	88.468	-84.2734
10900.000000	89.706	-82.4637
11060.000000	91.398	-84.6401
11200.000000	92.987	-92.8719
11380.000000	93.883	-114.5276
11500.000000	92.920	-130.2819
11720.000000	89.411	-145.1132
11800.000000	88.118	-146.4560
12060.000000	84.503	-143.7828
12200.000000	82.943	-139.2145
12410.000000	81.015	-131.0824
12500.000000	80.326	-127.3178
12650.000000	79.361	-120.5375
12800.000000	78.533	-113.4644
13150.000000	77.165	-96.1559
13200.000000	77.054	-93.6944
13400.000000	76.524	-83.5330
13600.000000	76.240	-73.8023
13800.000000	76.228	-63.4353
14000.000000	76.440	-53.7870
14300.000000	77.362	-39.5196
14500.000000	78.415	-34.9125
14750.000000	76.949	-27.3742
15000.000000	79.603	-2.7512
15250.000000	83.704	2.7803
15500.000000	87.884	-14.5775
15750.000000	87.542	-44.5643
16000.000000	85.103	-55.5134
16250.000000	82.968	-56.3410
16500.000000	81.921	-51.5770
16750.000000	80.876	-48.9761
17000.000000	80.010	-43.6259
17250.000000	79.653	-37.5668
17500.000000	79.678	-30.8336
17750.000000	80.150	-25.5068
18000.000000	81.291	-23.6641
18250.000000	82.901	-28.6252
18500.000000	83.976	-45.5640
18750.000000	82.664	-66.5223
19000.000000	80.069	-77.1504
19250.000000	77.798	-79.4844
19500.000000	76.353	-80.5878
19750.000000	75.292	-84.5401
