* Measurement data measured by REW V5.20.4
* Source: Microphone (2- KM-HIFI-384KHZ), MICROPHONE (Master Volume), L, volume: 0.250
* Format: 256k Log Swept Sine, 1 sweep at -6.0 dBFS with no timing reference
* Dated: 21 Mar, 2022 8:54:04 PM
* REW Settings:
*  C-weighting compensation: Off
*  Target level: 75.0 dB
* Note: 
* Measurement: DQ6 L
* Smoothing: None
* Frequency Step: 1/48 octave
* Start Frequency: 20.000 Hz
*
* Freq(Hz)	SPL(dB)	Phase(degrees)
20.000000	93.074	-158.9878
20.299999	93.101	-159.4680
20.600000	93.126	-159.9392
20.900000	93.149	-160.3881
21.200001	93.170	-160.8231
21.400000	93.186	-161.1049
21.799999	93.217	-161.6505
22.000000	93.232	-161.9197
22.400000	93.262	-162.4668
22.700001	93.282	-162.8673
23.000000	93.300	-163.2525
23.299999	93.316	-163.6245
23.600000	93.332	-163.9763
24.000000	93.356	-164.4208
24.299999	93.376	-164.7504
24.700001	93.403	-165.1927
25.000000	93.423	-165.5287
25.400000	93.447	-165.9858
25.799999	93.467	-166.4346
26.200001	93.485	-166.8737
26.500000	93.497	-167.1949
26.900000	93.508	-167.6013
27.200001	93.514	-167.8936
27.600000	93.522	-168.2685
28.000000	93.533	-168.6281
28.500000	93.548	-169.0841
29.000000	93.563	-169.5562
29.500000	93.574	-170.0427
30.000000	93.580	-170.5080
30.400000	93.586	-170.8625
30.700001	93.591	-171.1162
31.100000	93.599	-171.4499
31.500000	93.607	-171.7873
32.000000	93.615	-172.2069
32.500000	93.620	-172.6176
33.000000	93.625	-173.0082
33.500000	93.627	-173.3892
34.000000	93.630	-173.7620
34.500000	93.638	-174.1383
35.000000	93.645	-174.5156
35.500000	93.650	-174.8948
36.000000	93.652	-175.2574
36.500000	93.652	-175.5921
37.000000	93.655	-175.8992
37.500000	93.662	-176.2080
38.200001	93.669	-176.6640
38.700001	93.666	-176.9902
39.500000	93.660	-177.4661
40.000000	93.658	-177.7588
40.599998	93.655	-178.1319
41.200001	93.645	-178.4928
41.799999	93.635	-178.8139
42.500000	93.630	-179.1833
43.099998	93.627	-179.5307
43.700001	93.621	-179.8775
44.400002	93.615	179.7316
45.000000	93.609	179.3810
45.500000	93.600	179.0985
46.200001	93.588	178.7762
46.799999	93.587	178.5156
47.500000	93.584	178.1549
48.200001	93.568	177.8699
48.700001	93.567	177.7431
49.400002	93.589	177.4581
50.000000	93.594	177.0135
50.799999	93.549	176.5005
51.500000	93.513	176.3333
52.200001	93.508	176.1398
53.000000	93.495	175.7443
53.799999	93.466	175.4165
54.500000	93.451	175.1696
55.200001	93.438	174.8716
56.000000	93.419	174.5197
57.000000	93.392	174.1345
58.000000	93.372	173.7984
59.000000	93.353	173.4378
60.000000	93.330	173.0583
60.799999	93.299	172.6570
61.500000	93.244	172.4608
62.200001	93.217	172.5386
63.000000	93.248	172.4138
64.000000	93.234	171.7134
65.000000	93.174	171.4696
66.000000	93.177	171.2482
67.000000	93.159	170.8082
68.000000	93.131	170.4961
69.000000	93.104	170.1908
70.000000	93.071	169.9229
71.000000	93.041	169.6912
72.000000	93.018	169.4466
73.000000	92.989	169.1246
74.000000	92.954	168.8668
75.000000	92.927	168.6031
76.199997	92.889	168.3165
77.500000	92.856	168.0349
78.800003	92.824	167.7957
80.000000	92.800	167.4661
81.199997	92.756	167.1815
82.500000	92.718	166.8770
83.800003	92.678	166.6516
85.000000	92.656	166.3226
86.199997	92.612	166.0829
87.500000	92.581	165.8070
88.500000	92.546	165.6337
90.000000	92.505	165.3575
91.199997	92.463	165.1428
92.500000	92.424	164.9438
93.800003	92.392	164.6984
95.000000	92.349	164.4482
96.199997	92.310	164.3190
97.500000	92.279	164.1118
98.800003	92.240	163.9449
100.000000	92.210	163.7158
101.500000	92.150	163.5144
103.000000	92.105	163.3237
104.400002	92.066	163.1548
106.000000	92.015	162.8914
107.500000	91.973	162.7572
109.000000	91.928	162.4547
110.599998	91.867	162.3659
112.000000	91.829	162.1577
113.800003	91.759	162.0513
115.000000	91.736	161.9502
117.199997	91.668	161.6111
118.000000	91.638	161.5502
120.599998	91.549	161.3397
122.000000	91.511	161.2408
124.099998	91.433	161.1908
125.000000	91.416	161.1551
126.500000	91.374	160.9273
128.000000	91.324	160.8872
131.500000	91.223	160.6090
132.000000	91.209	160.5989
134.000000	91.158	160.4690
136.000000	91.101	160.3741
138.000000	91.045	160.2680
140.000000	90.978	160.1391
143.000000	90.887	159.9807
145.000000	90.826	159.9258
147.500000	90.755	159.9040
150.000000	90.721	160.2202
152.500000	90.589	160.0261
155.000000	90.499	160.1511
157.500000	90.431	160.2601
160.000000	90.389	160.3983
162.500000	90.335	160.3931
165.000000	90.285	160.3539
167.500000	90.238	160.2873
170.000000	90.184	160.2130
172.500000	90.130	160.2141
175.000000	90.072	160.2322
177.500000	90.033	160.2972
180.000000	89.967	160.2199
182.500000	89.922	160.1802
185.000000	89.862	160.1964
187.500000	89.818	160.1008
190.000000	89.762	160.1145
192.500000	89.710	160.0796
195.000000	89.656	160.1005
197.500000	89.598	160.0798
200.000000	89.541	160.1169
203.000000	89.480	160.1469
206.000000	89.417	160.2349
209.000000	89.350	160.3044
212.000000	89.292	160.3714
214.000000	89.251	160.4268
218.000000	89.166	160.5566
220.000000	89.120	160.6391
224.000000	89.036	160.7675
227.000000	88.973	160.9062
230.000000	88.913	161.0156
233.000000	88.850	161.1761
236.000000	88.793	161.3013
240.000000	88.703	161.5049
243.000000	88.650	161.6318
247.000000	88.582	161.8449
250.000000	88.510	161.7227
254.000000	88.469	162.2536
258.000000	88.392	162.4460
262.000000	88.322	162.6826
265.000000	88.280	162.9389
269.000000	88.213	163.1666
272.000000	88.165	163.3542
276.000000	88.096	163.6031
280.000000	88.035	163.8569
285.000000	87.954	164.1949
290.000000	87.874	164.5316
295.000000	87.797	164.8990
300.000000	87.717	165.2380
304.000000	87.658	165.5373
307.000000	87.614	165.7780
311.000000	87.554	166.0270
315.000000	87.494	166.3870
320.000000	87.425	166.7740
325.000000	87.355	167.1880
330.000000	87.282	167.5728
335.000000	87.216	167.9943
340.000000	87.148	168.4239
345.000000	87.078	168.8790
350.000000	87.056	169.1569
355.000000	86.956	169.8712
360.000000	86.889	170.4407
365.000000	86.836	171.0632
370.000000	86.794	171.6947
375.000000	86.767	172.3521
382.000000	86.760	173.1280
387.000000	86.761	173.5503
395.000000	86.741	174.0079
400.000000	86.715	174.2979
406.000000	86.675	174.6112
412.000000	86.629	174.9423
418.000000	86.575	175.3770
425.000000	86.522	175.8912
431.000000	86.467	176.3409
437.000000	86.420	176.8075
444.000000	86.369	177.3776
450.000000	86.259	177.9219
455.000000	86.281	178.2848
462.000000	86.232	178.8991
468.000000	86.193	179.4265
475.000000	86.148	179.9963
482.000000	86.107	-179.3841
487.000000	86.080	-178.9614
494.000000	86.044	-178.3299
500.000000	86.014	-177.7880
508.000000	85.972	-177.0947
515.000000	85.939	-176.4703
522.000000	85.911	-175.8578
530.000000	85.879	-175.1208
538.000000	85.849	-174.3915
545.000000	85.825	-173.7513
552.000000	85.798	-173.1277
560.000000	85.780	-172.3989
570.000000	85.746	-171.5224
580.000000	85.718	-170.5703
590.000000	85.701	-169.6798
600.000000	85.674	-168.7741
608.000000	85.663	-168.0223
615.000000	85.648	-167.3867
622.000000	85.637	-166.7487
630.000000	85.623	-166.0427
640.000000	85.611	-165.1124
650.000000	85.578	-163.9415
660.000000	85.599	-163.2474
670.000000	85.596	-162.3507
680.000000	85.599	-161.4387
690.000000	85.594	-160.5243
700.000000	85.590	-159.6145
710.000000	85.595	-158.6896
720.000000	85.605	-157.7662
730.000000	85.613	-156.9157
740.000000	85.628	-156.0321
750.000000	85.686	-155.1435
762.000000	85.659	-154.1197
775.000000	85.673	-153.0522
788.000000	85.664	-152.0478
800.000000	85.616	-150.9741
812.000000	85.586	-149.0482
825.000000	85.719	-147.3769
838.000000	85.800	-146.1537
850.000000	85.879	-144.5693
862.000000	86.044	-143.8042
875.000000	86.151	-143.0308
885.000000	86.215	-142.3782
900.000000	86.306	-141.3475
912.000000	86.386	-140.4987
925.000000	86.470	-139.5872
938.000000	86.555	-138.6917
950.000000	86.637	-138.0544
962.000000	86.744	-137.0982
975.000000	86.846	-136.3026
988.000000	86.954	-135.4942
1000.000000	87.057	-134.7784
1015.000000	87.186	-133.9275
1030.000000	87.315	-133.1199
1044.000000	87.441	-132.4279
1060.000000	87.584	-131.6547
1075.000000	87.713	-130.9215
1090.000000	87.834	-130.3004
1106.000000	87.962	-129.6067
1120.000000	88.065	-129.0616
1138.000000	88.203	-128.3514
1150.000000	88.280	-127.9976
1172.000000	88.464	-127.1432
1180.000000	88.523	-126.8764
1206.000000	88.718	-126.0282
1220.000000	88.839	-125.5700
1241.000000	89.046	-124.9715
1250.000000	89.137	-124.5734
1265.000000	89.278	-124.2709
1280.000000	89.423	-123.8230
1315.000000	89.758	-122.8835
1320.000000	89.808	-122.7426
1340.000000	90.000	-122.2210
1360.000000	90.240	-121.7474
1380.000000	90.445	-121.2314
1400.000000	90.643	-120.7672
1430.000000	90.951	-120.1031
1450.000000	91.153	-119.6606
1475.000000	91.430	-119.1980
1500.000000	91.696	-118.7423
1525.000000	91.965	-118.3635
1550.000000	92.224	-117.8838
1575.000000	92.476	-117.6831
1600.000000	92.734	-117.4497
1625.000000	93.002	-117.2742
1650.000000	93.270	-117.0948
1675.000000	93.550	-117.1682
1700.000000	93.828	-117.2379
1725.000000	94.115	-117.4150
1750.000000	94.401	-117.6613
1775.000000	94.695	-118.0913
1800.000000	94.991	-118.6045
1825.000000	95.284	-119.2472
1850.000000	95.565	-120.0132
1875.000000	95.861	-120.9783
1900.000000	96.142	-122.0249
1925.000000	96.409	-123.3187
1950.000000	96.672	-124.6939
1975.000000	96.906	-126.2965
2000.000000	97.129	-128.0162
2030.000000	97.362	-130.2586
2060.000000	97.558	-132.6913
2090.000000	97.708	-135.2790
2120.000000	97.813	-137.9522
2140.000000	97.856	-139.7660
2180.000000	97.869	-143.3912
2200.000000	97.841	-145.1671
2240.000000	97.726	-148.5582
2270.000000	97.589	-150.9429
2300.000000	97.416	-153.1363
2330.000000	97.212	-155.1211
2360.000000	96.983	-156.8745
2400.000000	96.652	-158.8714
2430.000000	96.389	-160.1082
2470.000000	96.028	-161.4147
2500.000000	95.757	-162.1628
2540.000000	95.396	-162.8837
2580.000000	95.042	-163.3414
2620.000000	94.696	-163.5052
2650.000000	94.441	-163.4984
2690.000000	94.125	-163.2849
2720.000000	93.895	-163.0069
2760.000000	93.597	-162.5062
2800.000000	93.315	-161.8848
2850.000000	92.982	-160.9313
2900.000000	92.668	-159.7374
2950.000000	92.371	-158.4753
3000.000000	92.104	-156.9862
3040.000000	91.900	-155.7291
3070.000000	91.755	-154.7417
3110.000000	91.582	-153.2775
3150.000000	91.420	-151.6953
3200.000000	91.254	-149.7028
3250.000000	91.145	-147.6510
3300.000000	91.046	-145.7373
3350.000000	90.971	-143.8605
3400.000000	90.898	-142.1927
3450.000000	90.835	-140.3361
3500.000000	90.771	-138.5186
3550.000000	90.726	-136.5738
3600.000000	90.689	-134.6932
3650.000000	90.670	-132.8268
3700.000000	90.663	-130.7847
3750.000000	90.673	-128.8584
3820.000000	90.716	-126.0022
3870.000000	90.765	-124.0005
3950.000000	90.874	-120.8272
4000.000000	90.969	-118.7649
4060.000000	91.091	-116.3731
4120.000000	91.249	-114.0467
4180.000000	91.430	-111.7503
4250.000000	91.673	-109.0577
4310.000000	91.897	-106.8940
4370.000000	92.152	-104.7608
4440.000000	92.488	-102.3007
4500.000000	92.806	-100.3423
4550.000000	93.096	-98.7358
4620.000000	93.533	-96.6392
4680.000000	93.943	-94.9982
4750.000000	94.463	-93.2608
4820.000000	95.041	-91.7695
4870.000000	95.490	-90.9141
4940.000000	96.170	-90.1510
5000.000000	96.805	-89.9698
5080.000000	97.703	-90.6396
5150.000000	98.523	-92.2805
5220.000000	99.336	-95.1167
5300.000000	100.197	-100.0390
5380.000000	100.871	-106.7734
5450.000000	101.200	-113.8558
5520.000000	101.205	-121.3328
5600.000000	100.829	-129.3095
5700.000000	99.931	-137.0396
5800.000000	98.821	-141.2566
5900.000000	97.656	-143.5166
6000.000000	96.950	-142.9916
6080.000000	96.235	-143.1317
6150.000000	95.654	-142.2628
6220.000000	95.123	-140.8893
6300.000000	94.610	-138.8088
6400.000000	94.068	-135.8042
6500.000000	93.645	-132.4380
6600.000000	93.327	-128.7557
6700.000000	93.108	-124.9395
6800.000000	92.991	-121.0615
6900.000000	93.005	-117.1904
7000.000000	93.169	-113.3221
7100.000000	93.427	-109.5551
7200.000000	93.794	-106.0376
7300.000000	94.263	-102.8416
7400.000000	94.843	-100.0564
7500.000000	95.542	-97.7967
7620.000000	96.555	-96.1087
7750.000000	97.977	-96.3126
7880.000000	99.382	-100.0518
8000.000000	100.594	-108.0387
8120.000000	101.251	-120.5420
8250.000000	100.876	-135.6058
8380.000000	99.552	-147.5275
8500.000000	97.938	-154.0167
8620.000000	96.293	-156.7155
8750.000000	94.635	-156.5368
8850.000000	93.496	-154.9848
9000.000000	92.039	-150.9404
9120.000000	91.070	-146.9244
9250.000000	90.202	-141.9562
9380.000000	89.498	-136.6123
9500.000000	88.984	-131.4192
9620.000000	88.608	-126.1926
9750.000000	88.336	-120.3285
9880.000000	88.215	-114.5371
10000.000000	88.256	-109.2443
10150.000000	88.504	-102.8776
10300.000000	89.013	-97.0179
10440.000000	89.738	-92.2177
10600.000000	90.955	-88.4328
10750.000000	92.562	-87.7029
10900.000000	94.649	-92.8280
11060.000000	96.746	-111.1861
11200.000000	96.451	-136.9948
11380.000000	93.035	-157.9991
11500.000000	90.594	-162.2879
11720.000000	86.890	-160.6960
11800.000000	85.789	-158.6812
12060.000000	82.809	-149.1651
12200.000000	81.586	-143.5137
12410.000000	79.963	-133.8403
12500.000000	79.417	-129.4993
12650.000000	78.586	-122.1627
12800.000000	77.904	-114.6966
13150.000000	76.811	-97.3518
13200.000000	76.686	-94.9961
13400.000000	76.179	-85.0406
13600.000000	75.927	-74.6608
13800.000000	75.966	-63.8713
14000.000000	76.251	-53.9261
14300.000000	77.153	-39.0001
14500.000000	78.012	-29.8384
14750.000000	79.770	-19.9464
15000.000000	82.188	-13.1926
15250.000000	85.752	-15.7228
15500.000000	88.918	-42.9201
15750.000000	86.323	-75.6277
16000.000000	82.307	-81.5792
16250.000000	79.648	-74.4314
16500.000000	78.057	-66.2842
16750.000000	76.845	-59.3223
17000.000000	75.796	-50.4378
17250.000000	75.136	-40.2401
17500.000000	74.958	-29.1951
17750.000000	75.186	-20.8716
18000.000000	76.033	-13.5979
18250.000000	77.514	-9.6516
18500.000000	79.506	-17.0662
18750.000000	80.264	-38.5419
19000.000000	77.886	-58.4049
19250.000000	74.637	-63.4871
19500.000000	72.189	-60.2081
19750.000000	70.683	-56.0123
