* Measurement data measured by REW V5.20.4
* Source: Microphone (2- KM-HIFI-384KHZ), MICROPHONE (Master Volume), L, volume: 0.250
* Format: 256k Log Swept Sine, 1 sweep at -6.0 dBFS with no timing reference
* Dated: 21 Mar, 2022 9:13:14 PM
* REW Settings:
*  C-weighting compensation: Off
*  Target level: 75.0 dB
* Note: 
* Measurement: DQ6 Tanch L
* Smoothing: None
* Frequency Step: 1/48 octave
* Start Frequency: 20.000 Hz
*
* Freq(Hz)	SPL(dB)	Phase(degrees)
20.000000	87.359	-161.2438
20.299999	87.387	-161.7164
20.600000	87.413	-162.1943
20.900000	87.436	-162.6655
21.200001	87.457	-163.1319
21.400000	87.471	-163.4331
21.799999	87.498	-164.0061
22.000000	87.512	-164.2813
22.400000	87.540	-164.8293
22.700001	87.560	-165.2312
23.000000	87.580	-165.6289
23.299999	87.599	-166.0279
23.600000	87.617	-166.4193
24.000000	87.640	-166.9267
24.299999	87.657	-167.3022
24.700001	87.678	-167.7951
25.000000	87.693	-168.1592
25.400000	87.710	-168.6414
25.799999	87.725	-169.1037
26.200001	87.739	-169.5503
26.500000	87.750	-169.8787
26.900000	87.761	-170.3059
27.200001	87.767	-170.6265
27.600000	87.775	-171.0551
28.000000	87.781	-171.4742
28.500000	87.787	-171.9869
29.000000	87.794	-172.4852
29.500000	87.801	-172.9861
30.000000	87.807	-173.4822
30.400000	87.812	-173.8770
30.700001	87.816	-174.1647
31.100000	87.820	-174.5392
31.500000	87.823	-174.9064
32.000000	87.826	-175.3477
32.500000	87.828	-175.7702
33.000000	87.832	-176.1742
33.500000	87.833	-176.5794
34.000000	87.834	-176.9888
34.500000	87.837	-177.4012
35.000000	87.837	-177.7977
35.500000	87.836	-178.1791
36.000000	87.836	-178.5491
36.500000	87.834	-178.9166
37.000000	87.832	-179.2751
37.500000	87.829	-179.6266
38.200001	87.824	179.8951
38.700001	87.818	179.5555
39.500000	87.805	179.0262
40.000000	87.798	178.7085
40.599998	87.791	178.3313
41.200001	87.784	177.9545
41.799999	87.777	177.5804
42.500000	87.768	177.1503
43.099998	87.761	176.7775
43.700001	87.751	176.4019
44.400002	87.736	175.9924
45.000000	87.723	175.6710
45.500000	87.715	175.3951
46.200001	87.701	174.9893
46.799999	87.684	174.6634
47.500000	87.668	174.3134
48.200001	87.656	173.9092
48.700001	87.639	173.5978
49.400002	87.605	173.2557
50.000000	87.588	173.0580
50.799999	87.587	172.7160
51.500000	87.578	172.2916
52.200001	87.555	171.9099
53.000000	87.532	171.5668
53.799999	87.516	171.2020
54.500000	87.494	170.8710
55.200001	87.469	170.5850
56.000000	87.447	170.2867
57.000000	87.423	169.8445
58.000000	87.386	169.3933
59.000000	87.349	168.9986
60.000000	87.310	168.6003
60.799999	87.283	168.3068
61.500000	87.263	168.0537
62.200001	87.245	167.7973
63.000000	87.224	167.4883
64.000000	87.190	167.1038
65.000000	87.160	166.8099
66.000000	87.136	166.4435
67.000000	87.099	166.0775
68.000000	87.061	165.7472
69.000000	87.018	165.4442
70.000000	86.987	165.1810
71.000000	86.955	164.8257
72.000000	86.917	164.5362
73.000000	86.886	164.2229
74.000000	86.846	163.9359
75.000000	86.815	163.6708
76.199997	86.770	163.3369
77.500000	86.726	163.0162
78.800003	86.677	162.6833
80.000000	86.636	162.3881
81.199997	86.592	162.0734
82.500000	86.542	161.7370
83.800003	86.491	161.4513
85.000000	86.450	161.1876
86.199997	86.405	160.9160
87.500000	86.358	160.6317
88.500000	86.320	160.4108
90.000000	86.261	160.1225
91.199997	86.219	159.8915
92.500000	86.172	159.6447
93.800003	86.127	159.3927
95.000000	86.080	159.1706
96.199997	86.036	158.9623
97.500000	85.983	158.7619
98.800003	85.937	158.5729
100.000000	85.892	158.4098
101.500000	85.844	158.1516
103.000000	85.786	157.9338
104.400002	85.738	157.7150
106.000000	85.676	157.4816
107.500000	85.621	157.2777
109.000000	85.559	157.0583
110.599998	85.504	156.8984
112.000000	85.445	156.6814
113.800003	85.385	156.5208
115.000000	85.326	156.4128
117.199997	85.256	156.2375
118.000000	85.223	156.1985
120.599998	85.127	156.0079
122.000000	85.091	155.9223
124.099998	85.025	155.7350
125.000000	84.998	155.6664
126.500000	84.955	155.5296
128.000000	84.900	155.3759
131.500000	84.781	155.1309
132.000000	84.768	155.0718
134.000000	84.692	154.9120
136.000000	84.621	154.7743
138.000000	84.552	154.6792
140.000000	84.487	154.5766
143.000000	84.384	154.4601
145.000000	84.314	154.4108
147.500000	84.221	154.3512
150.000000	84.092	154.3508
152.500000	84.040	154.2447
155.000000	83.958	154.2602
157.500000	83.870	154.3764
160.000000	83.791	154.4757
162.500000	83.714	154.5725
165.000000	83.639	154.6971
167.500000	83.605	154.8552
170.000000	83.562	154.8908
172.500000	83.527	154.8581
175.000000	83.484	154.7178
177.500000	83.428	154.6226
180.000000	83.363	154.4999
182.500000	83.304	154.3901
185.000000	83.243	154.3585
187.500000	83.170	154.3704
190.000000	83.102	154.2959
192.500000	83.037	154.2954
195.000000	82.978	154.2799
197.500000	82.918	154.2835
200.000000	82.860	154.3387
203.000000	82.787	154.3833
206.000000	82.713	154.4288
209.000000	82.641	154.4814
212.000000	82.566	154.5722
214.000000	82.528	154.6300
218.000000	82.430	154.7527
220.000000	82.379	154.7640
224.000000	82.286	154.9297
227.000000	82.213	155.0208
230.000000	82.143	155.1214
233.000000	82.079	155.2960
236.000000	82.013	155.4615
240.000000	81.919	155.7466
243.000000	81.861	155.8258
247.000000	81.777	156.0056
250.000000	81.745	156.1172
254.000000	81.645	156.4565
258.000000	81.574	156.6822
262.000000	81.505	156.9002
265.000000	81.450	157.0370
269.000000	81.383	157.2582
272.000000	81.325	157.4275
276.000000	81.251	157.6352
280.000000	81.177	157.8759
285.000000	81.083	158.1905
290.000000	80.992	158.5120
295.000000	80.900	158.8407
300.000000	80.813	159.2197
304.000000	80.739	159.4902
307.000000	80.682	159.7237
311.000000	80.609	160.0394
315.000000	80.534	160.3727
320.000000	80.444	160.8462
325.000000	80.352	161.3502
330.000000	80.264	161.9404
335.000000	80.183	162.6193
340.000000	80.123	163.3990
345.000000	80.092	164.2014
350.000000	80.120	164.9490
355.000000	80.125	165.4222
360.000000	80.143	165.6574
365.000000	80.135	165.7474
370.000000	80.106	165.8542
375.000000	80.066	165.9662
382.000000	79.993	166.2512
387.000000	79.936	166.5134
395.000000	79.844	166.9694
400.000000	79.789	167.2721
406.000000	79.728	167.6862
412.000000	79.668	168.1153
418.000000	79.613	168.5515
425.000000	79.544	169.0464
431.000000	79.491	169.4840
437.000000	79.438	169.9565
444.000000	79.379	170.4846
450.000000	79.292	170.8881
455.000000	79.288	171.3129
462.000000	79.232	171.8828
468.000000	79.186	172.3702
475.000000	79.137	172.8999
482.000000	79.088	173.4531
487.000000	79.057	173.8593
494.000000	79.015	174.4074
500.000000	78.980	174.8900
508.000000	78.938	175.5386
515.000000	78.900	176.0986
522.000000	78.863	176.6750
530.000000	78.823	177.3436
538.000000	78.786	177.9782
545.000000	78.758	178.5477
552.000000	78.725	179.1283
560.000000	78.695	179.7548
570.000000	78.656	-179.4114
580.000000	78.619	-178.5835
590.000000	78.588	-177.7756
600.000000	78.562	-176.9537
608.000000	78.539	-176.2877
615.000000	78.515	-175.7110
622.000000	78.497	-175.1474
630.000000	78.479	-174.4522
640.000000	78.455	-173.6514
650.000000	78.448	-172.6685
660.000000	78.421	-172.0338
670.000000	78.409	-171.1958
680.000000	78.397	-170.3564
690.000000	78.384	-169.5309
700.000000	78.374	-168.7478
710.000000	78.365	-167.9165
720.000000	78.361	-167.1115
730.000000	78.356	-166.3193
740.000000	78.360	-165.5250
750.000000	78.364	-164.9153
762.000000	78.365	-163.8390
775.000000	78.362	-162.9634
788.000000	78.341	-162.0717
800.000000	78.262	-161.1143
812.000000	78.221	-159.1839
825.000000	78.346	-157.7301
838.000000	78.399	-156.6027
850.000000	78.512	-155.1798
862.000000	78.635	-154.4376
875.000000	78.717	-153.8317
885.000000	78.762	-153.2751
900.000000	78.835	-152.3874
912.000000	78.890	-151.6934
925.000000	78.962	-150.8915
938.000000	79.036	-150.1006
950.000000	79.105	-149.3400
962.000000	79.174	-148.7815
975.000000	79.265	-148.1010
988.000000	79.353	-147.4477
1000.000000	79.438	-146.8569
1015.000000	79.546	-146.1521
1030.000000	79.656	-145.5122
1044.000000	79.754	-144.9699
1060.000000	79.867	-144.3565
1075.000000	79.979	-143.8436
1090.000000	80.073	-143.3713
1106.000000	80.170	-142.9057
1120.000000	80.253	-142.4953
1138.000000	80.358	-142.0182
1150.000000	80.436	-141.6801
1172.000000	80.544	-141.2237
1180.000000	80.585	-141.0517
1206.000000	80.721	-140.5139
1220.000000	80.808	-140.2604
1241.000000	80.964	-139.8961
1250.000000	81.016	-139.7726
1265.000000	81.131	-139.4754
1280.000000	81.232	-139.2302
1315.000000	81.466	-138.7208
1320.000000	81.495	-138.6242
1340.000000	81.625	-138.3277
1360.000000	81.795	-138.0600
1380.000000	81.928	-137.8244
1400.000000	82.058	-137.5496
1430.000000	82.254	-137.2127
1450.000000	82.373	-137.0143
1475.000000	82.539	-136.7089
1500.000000	82.695	-136.4658
1525.000000	82.846	-136.2064
1550.000000	82.970	-135.9300
1575.000000	83.101	-135.8335
1600.000000	83.229	-135.6438
1625.000000	83.352	-135.5018
1650.000000	83.473	-135.3060
1675.000000	83.598	-135.2848
1700.000000	83.717	-135.2331
1725.000000	83.840	-135.1885
1750.000000	83.960	-135.1419
1775.000000	84.077	-135.2016
1800.000000	84.193	-135.2563
1825.000000	84.308	-135.3484
1850.000000	84.419	-135.4145
1875.000000	84.527	-135.5983
1900.000000	84.627	-135.7747
1925.000000	84.730	-135.9772
1950.000000	84.828	-136.2678
1975.000000	84.913	-136.4587
2000.000000	85.001	-136.7477
2030.000000	85.098	-137.1071
2060.000000	85.184	-137.5055
2090.000000	85.266	-137.9355
2120.000000	85.336	-138.3765
2140.000000	85.379	-138.6907
2180.000000	85.453	-139.3111
2200.000000	85.481	-139.6356
2240.000000	85.532	-140.3061
2270.000000	85.557	-140.7820
2300.000000	85.571	-141.2754
2330.000000	85.582	-141.7368
2360.000000	85.581	-142.1860
2400.000000	85.566	-142.7413
2430.000000	85.547	-143.1275
2470.000000	85.511	-143.5816
2500.000000	85.476	-143.8847
2540.000000	85.423	-144.2280
2580.000000	85.359	-144.4857
2620.000000	85.294	-144.6845
2650.000000	85.240	-144.7886
2690.000000	85.165	-144.8528
2720.000000	85.104	-144.8529
2760.000000	85.025	-144.7945
2800.000000	84.942	-144.6503
2850.000000	84.837	-144.4244
2900.000000	84.732	-144.0052
2950.000000	84.629	-143.5205
3000.000000	84.534	-142.9399
3040.000000	84.464	-142.3602
3070.000000	84.414	-141.8883
3110.000000	84.352	-141.2428
3150.000000	84.305	-140.5412
3200.000000	84.254	-139.6548
3250.000000	84.212	-138.8480
3300.000000	84.179	-138.0066
3350.000000	84.139	-137.1970
3400.000000	84.094	-136.2750
3450.000000	84.064	-135.2746
3500.000000	84.043	-134.2796
3550.000000	84.024	-133.2689
3600.000000	84.018	-132.1461
3650.000000	84.025	-130.9954
3700.000000	84.036	-129.8713
3750.000000	84.063	-128.7174
3820.000000	84.111	-127.1379
3870.000000	84.157	-125.9950
3950.000000	84.263	-124.2598
4000.000000	84.327	-123.1472
4060.000000	84.422	-121.8688
4120.000000	84.529	-120.6142
4180.000000	84.651	-119.4522
4250.000000	84.799	-118.1017
4310.000000	84.935	-116.8931
4370.000000	85.092	-115.7295
4440.000000	85.306	-114.4221
4500.000000	85.514	-113.4130
4550.000000	85.699	-112.7199
4620.000000	85.980	-111.8608
4680.000000	86.232	-111.3044
4750.000000	86.538	-110.9299
4820.000000	86.845	-110.8703
4870.000000	87.065	-110.9974
4940.000000	87.351	-111.4722
5000.000000	87.587	-112.1375
5080.000000	87.855	-113.3566
5150.000000	88.049	-114.6727
5220.000000	88.192	-116.2295
5300.000000	88.284	-118.1151
5380.000000	88.295	-120.0686
5450.000000	88.239	-121.6900
5520.000000	88.110	-123.1204
5600.000000	87.907	-124.4731
5700.000000	87.576	-125.5592
5800.000000	87.258	-125.5927
5900.000000	86.792	-125.6103
6000.000000	86.623	-124.1183
6080.000000	86.412	-123.3701
6150.000000	86.232	-122.3907
6220.000000	86.081	-121.1416
6300.000000	85.942	-119.5515
6400.000000	85.827	-117.2940
6500.000000	85.779	-114.8510
6600.000000	85.792	-112.3204
6700.000000	85.886	-109.6991
6800.000000	86.054	-107.1359
6900.000000	86.336	-104.6134
7000.000000	86.756	-102.2884
7100.000000	87.270	-100.2399
7200.000000	87.887	-98.7059
7300.000000	88.589	-97.8033
7400.000000	89.398	-97.7729
7500.000000	90.283	-98.9528
7620.000000	91.396	-102.5419
7750.000000	92.588	-109.8416
7880.000000	93.135	-120.5578
8000.000000	92.983	-131.7536
8120.000000	92.211	-141.5064
8250.000000	90.997	-148.8459
8380.000000	89.693	-153.2366
8500.000000	88.489	-155.3985
8620.000000	87.320	-155.9568
8750.000000	86.125	-155.0409
8850.000000	85.305	-153.4979
9000.000000	84.237	-150.2363
9120.000000	83.529	-147.2557
9250.000000	82.886	-143.7631
9380.000000	82.373	-140.1759
9500.000000	82.005	-136.9009
9620.000000	81.714	-133.7919
9750.000000	81.509	-130.6754
9880.000000	81.404	-127.8888
10000.000000	81.353	-125.8164
10150.000000	81.380	-123.9349
10300.000000	81.461	-123.2337
10440.000000	81.502	-123.7169
10600.000000	81.445	-125.4784
10750.000000	81.203	-128.2431
10900.000000	80.713	-131.4500
11060.000000	79.903	-134.3845
11200.000000	79.003	-135.9423
11380.000000	77.718	-136.2295
11500.000000	76.804	-135.2303
11720.000000	75.233	-131.5164
11800.000000	74.687	-129.6237
12060.000000	73.087	-122.0095
12200.000000	72.360	-117.2087
12410.000000	71.444	-109.5080
12500.000000	71.111	-105.8113
12650.000000	70.662	-99.6547
12800.000000	70.284	-93.4665
13150.000000	69.712	-79.5803
13200.000000	69.633	-77.3282
13400.000000	69.397	-68.8559
13600.000000	69.447	-59.2151
13800.000000	69.821	-50.1889
14000.000000	70.386	-41.5971
14300.000000	71.714	-29.6251
14500.000000	73.025	-22.7715
14750.000000	75.219	-17.1311
15000.000000	78.272	-19.1237
15250.000000	81.179	-38.7295
15500.000000	80.194	-69.6995
15750.000000	76.751	-81.6343
16000.000000	73.728	-80.0973
16250.000000	71.706	-72.3576
16500.000000	70.338	-63.1476
16750.000000	69.596	-54.4214
17000.000000	69.113	-46.2089
17250.000000	68.921	-37.6974
17500.000000	68.964	-30.2389
17750.000000	69.561	-23.9116
18000.000000	70.633	-21.3453
18250.000000	71.991	-26.0266
18500.000000	72.474	-40.1551
18750.000000	71.014	-55.7036
19000.000000	68.443	-62.5642
19250.000000	66.101	-61.5023
19500.000000	64.422	-57.0258
19750.000000	63.254	-52.8429
