* Measurement data measured by REW V5.20.4
* Source: Microphone (2- KM-HIFI-384KHZ), MICROPHONE (Master Volume), R, volume: 0.250
* Format: 256k Log Swept Sine, 1 sweep at -6.0 dBFS with no timing reference
* Dated: 21 Mar, 2022 9:11:11 PM
* REW Settings:
*  C-weighting compensation: Off
*  Target level: 75.0 dB
* Note: 
* Measurement: DQ6 Tanch R
* Smoothing: None
* Frequency Step: 1/48 octave
* Start Frequency: 20.000 Hz
*
* Freq(Hz)	SPL(dB)	Phase(degrees)
20.000000	84.357	-141.2938
20.299999	84.422	-141.8546
20.600000	84.482	-142.3898
20.900000	84.537	-142.8786
21.200001	84.593	-143.3325
21.400000	84.634	-143.6236
21.799999	84.721	-144.2006
22.000000	84.765	-144.5024
22.400000	84.855	-145.1628
22.700001	84.916	-145.6892
23.000000	84.971	-146.2242
23.299999	85.019	-146.7523
23.600000	85.061	-147.2511
24.000000	85.115	-147.8589
24.299999	85.158	-148.2827
24.700001	85.217	-148.8245
25.000000	85.265	-149.2320
25.400000	85.329	-149.8015
25.799999	85.390	-150.3931
26.200001	85.444	-150.9969
26.500000	85.480	-151.4433
26.900000	85.521	-152.0041
27.200001	85.547	-152.3971
27.600000	85.582	-152.8865
28.000000	85.619	-153.3422
28.500000	85.670	-153.9003
29.000000	85.723	-154.4675
29.500000	85.777	-155.0660
30.000000	85.825	-155.6818
30.400000	85.860	-156.1780
30.700001	85.885	-156.5380
31.100000	85.914	-156.9959
31.500000	85.944	-157.4329
32.000000	85.983	-157.9630
32.500000	86.023	-158.5070
33.000000	86.060	-159.0678
33.500000	86.088	-159.6319
34.000000	86.113	-160.1685
34.500000	86.142	-160.6799
35.000000	86.172	-161.1775
35.500000	86.203	-161.6825
36.000000	86.231	-162.1912
36.500000	86.256	-162.6942
37.000000	86.279	-163.1756
37.500000	86.302	-163.6406
38.200001	86.333	-164.2779
38.700001	86.352	-164.7401
39.500000	86.376	-165.4779
40.000000	86.387	-165.9194
40.599998	86.401	-166.4303
41.200001	86.415	-166.9358
41.799999	86.427	-167.4394
42.500000	86.437	-167.9996
43.099998	86.449	-168.4584
43.700001	86.462	-168.9298
44.400002	86.473	-169.4926
45.000000	86.478	-169.9502
45.500000	86.484	-170.3188
46.200001	86.493	-170.8493
46.799999	86.496	-171.3035
47.500000	86.499	-171.7759
48.200001	86.513	-172.2632
48.700001	86.520	-172.6816
49.400002	86.509	-173.2728
50.000000	86.490	-173.6330
50.799999	86.490	-173.9731
51.500000	86.510	-174.3911
52.200001	86.518	-174.9052
53.000000	86.513	-175.4231
53.799999	86.511	-175.9000
54.500000	86.505	-176.3233
55.200001	86.498	-176.7194
56.000000	86.492	-177.1795
57.000000	86.476	-177.7403
58.000000	86.467	-178.2642
59.000000	86.448	-178.8415
60.000000	86.427	-179.2895
60.799999	86.427	-179.7237
61.500000	86.412	179.8568
62.200001	86.395	179.5509
63.000000	86.393	179.2004
64.000000	86.377	178.6134
65.000000	86.347	178.1827
66.000000	86.330	177.7660
67.000000	86.312	177.3511
68.000000	86.299	176.9025
69.000000	86.273	176.4430
70.000000	86.252	176.0619
71.000000	86.234	175.6060
72.000000	86.203	175.2155
73.000000	86.185	174.8668
74.000000	86.162	174.4561
75.000000	86.134	174.1235
76.199997	86.111	173.6925
77.500000	86.073	173.2169
78.800003	86.029	172.7903
80.000000	86.004	172.4929
81.199997	85.983	172.0244
82.500000	85.943	171.5920
83.800003	85.909	171.2025
85.000000	85.885	170.8381
86.199997	85.856	170.4190
87.500000	85.808	169.9922
88.500000	85.775	169.7670
90.000000	85.733	169.4130
91.199997	85.711	169.0992
92.500000	85.665	168.7122
93.800003	85.630	168.4181
95.000000	85.586	168.1108
96.199997	85.555	167.8538
97.500000	85.511	167.5141
98.800003	85.481	167.2108
100.000000	85.428	166.9013
101.500000	85.397	166.7010
103.000000	85.353	166.3366
104.400002	85.314	166.0480
106.000000	85.256	165.7195
107.500000	85.206	165.4953
109.000000	85.157	165.2054
110.599998	85.113	164.9493
112.000000	85.064	164.6979
113.800003	85.005	164.4428
115.000000	84.974	164.3084
117.199997	84.911	163.9824
118.000000	84.887	163.8520
120.599998	84.812	163.5040
122.000000	84.773	163.2810
124.099998	84.711	162.9824
125.000000	84.686	162.8442
126.500000	84.638	162.6443
128.000000	84.596	162.4654
131.500000	84.485	162.0411
132.000000	84.470	161.9944
134.000000	84.410	161.7498
136.000000	84.347	161.5533
138.000000	84.287	161.3780
140.000000	84.219	161.2249
143.000000	84.122	160.9673
145.000000	84.061	160.8530
147.500000	83.985	160.7570
150.000000	83.926	160.9066
152.500000	83.814	160.6792
155.000000	83.745	160.6104
157.500000	83.690	160.6076
160.000000	83.636	160.5806
162.500000	83.582	160.4852
165.000000	83.526	160.3140
167.500000	83.465	160.1659
170.000000	83.399	160.0146
172.500000	83.335	159.9009
175.000000	83.270	159.7906
177.500000	83.218	159.6945
180.000000	83.138	159.6493
182.500000	83.078	159.5521
185.000000	83.016	159.5012
187.500000	82.963	159.4601
190.000000	82.903	159.4764
192.500000	82.843	159.4856
195.000000	82.786	159.4851
197.500000	82.734	159.4362
200.000000	82.680	159.4405
203.000000	82.615	159.4456
206.000000	82.550	159.4713
209.000000	82.486	159.4901
212.000000	82.428	159.5089
214.000000	82.389	159.5525
218.000000	82.300	159.5948
220.000000	82.260	159.6359
224.000000	82.172	159.6997
227.000000	82.107	159.7721
230.000000	82.047	159.8228
233.000000	81.986	159.9166
236.000000	81.926	160.0024
240.000000	81.840	160.1138
243.000000	81.784	160.1724
247.000000	81.719	160.3680
250.000000	81.682	160.6071
254.000000	81.584	160.6122
258.000000	81.518	160.8124
262.000000	81.445	161.0004
265.000000	81.392	161.1119
269.000000	81.331	161.2712
272.000000	81.276	161.4249
276.000000	81.207	161.6411
280.000000	81.139	161.8210
285.000000	81.053	162.1095
290.000000	80.967	162.3818
295.000000	80.887	162.6929
300.000000	80.806	163.0071
304.000000	80.744	163.2732
307.000000	80.690	163.5155
311.000000	80.632	163.7880
315.000000	80.576	164.1179
320.000000	80.507	164.5525
325.000000	80.449	164.9837
330.000000	80.399	165.3808
335.000000	80.352	165.7374
340.000000	80.305	166.0750
345.000000	80.261	166.3859
350.000000	80.214	166.5275
355.000000	80.170	167.0023
360.000000	80.121	167.3037
365.000000	80.074	167.6144
370.000000	80.026	167.9315
375.000000	79.982	168.2214
382.000000	79.912	168.7039
387.000000	79.866	169.0428
395.000000	79.792	169.5848
400.000000	79.747	169.9289
406.000000	79.698	170.3412
412.000000	79.647	170.7599
418.000000	79.602	171.2044
425.000000	79.546	171.6894
431.000000	79.499	172.1176
437.000000	79.452	172.5436
444.000000	79.400	173.0602
450.000000	79.358	173.2344
455.000000	79.328	173.8389
462.000000	79.274	174.3447
468.000000	79.236	174.8220
475.000000	79.191	175.3151
482.000000	79.148	175.8382
487.000000	79.124	176.1898
494.000000	79.085	176.7227
500.000000	79.056	177.1774
508.000000	79.014	177.7853
515.000000	78.980	178.3199
522.000000	78.948	178.8744
530.000000	78.914	179.4612
538.000000	78.881	-179.8828
545.000000	78.857	-179.3335
552.000000	78.832	-178.7464
560.000000	78.806	-178.1148
570.000000	78.784	-177.3307
580.000000	78.762	-176.5470
590.000000	78.742	-175.7743
600.000000	78.730	-175.0280
608.000000	78.715	-174.4158
615.000000	78.703	-173.9003
622.000000	78.692	-173.3781
630.000000	78.675	-172.7884
640.000000	78.662	-172.0310
650.000000	78.626	-171.2130
660.000000	78.643	-170.5117
670.000000	78.631	-169.7751
680.000000	78.631	-169.0092
690.000000	78.622	-168.2415
700.000000	78.619	-167.5032
710.000000	78.619	-166.7310
720.000000	78.620	-165.9510
730.000000	78.629	-165.1995
740.000000	78.639	-164.4242
750.000000	78.629	-163.7581
762.000000	78.681	-162.8127
775.000000	78.706	-161.8930
788.000000	78.739	-160.9575
800.000000	78.764	-160.1593
812.000000	78.792	-159.2026
825.000000	78.867	-158.2539
838.000000	78.949	-157.4895
850.000000	79.016	-156.8178
862.000000	79.104	-156.5709
875.000000	79.163	-156.4849
885.000000	79.154	-156.5909
900.000000	79.016	-156.2906
912.000000	78.906	-155.1302
925.000000	78.890	-153.5736
938.000000	78.956	-152.1508
950.000000	79.047	-151.0359
962.000000	79.125	-150.1737
975.000000	79.230	-149.2903
988.000000	79.342	-148.5401
1000.000000	79.442	-147.8857
1015.000000	79.562	-147.1512
1030.000000	79.687	-146.4936
1044.000000	79.795	-145.9406
1060.000000	79.920	-145.3558
1075.000000	80.039	-144.8558
1090.000000	80.138	-144.3954
1106.000000	80.240	-143.9644
1120.000000	80.329	-143.5959
1138.000000	80.441	-143.1778
1150.000000	80.521	-142.9858
1172.000000	80.638	-142.4722
1180.000000	80.679	-142.3246
1206.000000	80.822	-141.8857
1220.000000	80.917	-141.6960
1241.000000	81.075	-141.3636
1250.000000	81.147	-141.2818
1265.000000	81.243	-141.0432
1280.000000	81.346	-140.8740
1315.000000	81.579	-140.4532
1320.000000	81.612	-140.4391
1340.000000	81.743	-140.2309
1360.000000	81.920	-140.0563
1380.000000	82.049	-139.8480
1400.000000	82.180	-139.6969
1430.000000	82.373	-139.4583
1450.000000	82.507	-139.3299
1475.000000	82.653	-139.1722
1500.000000	82.805	-139.0166
1525.000000	82.956	-138.9318
1550.000000	83.079	-138.7309
1575.000000	83.197	-138.7355
1600.000000	83.316	-138.6718
1625.000000	83.431	-138.6459
1650.000000	83.546	-138.7174
1675.000000	83.660	-138.6740
1700.000000	83.771	-138.7033
1725.000000	83.880	-138.7789
1750.000000	83.989	-138.8359
1775.000000	84.092	-138.9934
1800.000000	84.193	-139.1433
1825.000000	84.292	-139.3145
1850.000000	84.385	-139.5474
1875.000000	84.479	-139.7242
1900.000000	84.562	-139.9839
1925.000000	84.650	-140.2134
1950.000000	84.726	-140.5493
1975.000000	84.794	-140.8078
2000.000000	84.860	-141.1455
2030.000000	84.933	-141.5258
2060.000000	84.998	-141.9436
2090.000000	85.056	-142.3508
2120.000000	85.104	-142.7859
2140.000000	85.133	-143.0693
2180.000000	85.178	-143.6592
2200.000000	85.198	-143.9633
2240.000000	85.223	-144.5197
2270.000000	85.232	-144.9630
2300.000000	85.238	-145.3684
2330.000000	85.234	-145.7517
2360.000000	85.225	-146.1246
2400.000000	85.200	-146.5746
2430.000000	85.178	-146.9046
2470.000000	85.138	-147.2648
2500.000000	85.104	-147.5247
2540.000000	85.052	-147.8033
2580.000000	84.994	-148.0321
2620.000000	84.926	-148.1766
2650.000000	84.871	-148.2543
2690.000000	84.802	-148.3312
2720.000000	84.745	-148.3154
2760.000000	84.665	-148.2719
2800.000000	84.585	-148.1401
2850.000000	84.480	-147.9098
2900.000000	84.379	-147.6052
2950.000000	84.280	-147.2000
3000.000000	84.178	-146.6777
3040.000000	84.097	-146.1917
3070.000000	84.036	-145.8270
3110.000000	83.955	-145.1862
3150.000000	83.880	-144.4744
3200.000000	83.806	-143.5426
3250.000000	83.750	-142.4589
3300.000000	83.726	-141.4263
3350.000000	83.718	-140.4320
3400.000000	83.714	-139.5734
3450.000000	83.704	-138.7274
3500.000000	83.697	-137.8511
3550.000000	83.696	-136.9665
3600.000000	83.694	-136.0790
3650.000000	83.704	-135.0882
3700.000000	83.715	-134.1646
3750.000000	83.734	-133.2451
3820.000000	83.780	-131.8486
3870.000000	83.820	-130.8670
3950.000000	83.891	-129.3590
4000.000000	83.957	-128.4555
4060.000000	84.034	-127.3586
4120.000000	84.129	-126.3113
4180.000000	84.233	-125.3345
4250.000000	84.357	-124.2425
4310.000000	84.474	-123.4259
4370.000000	84.596	-122.6572
4440.000000	84.745	-121.7841
4500.000000	84.872	-121.0740
4550.000000	84.991	-120.5030
4620.000000	85.168	-119.7559
4680.000000	85.337	-119.2570
4750.000000	85.542	-118.8586
4820.000000	85.747	-118.6688
4870.000000	85.888	-118.6518
4940.000000	86.072	-118.7834
5000.000000	86.220	-119.0905
5080.000000	86.390	-119.6897
5150.000000	86.509	-120.3716
5220.000000	86.594	-121.2102
5300.000000	86.646	-122.2043
5380.000000	86.647	-123.2702
5450.000000	86.605	-124.1315
5520.000000	86.514	-124.9489
5600.000000	86.348	-125.7488
5700.000000	86.049	-126.3531
5800.000000	85.579	-125.7064
5900.000000	85.304	-121.2645
6000.000000	85.830	-121.5985
6080.000000	85.646	-122.2385
6150.000000	85.471	-121.8208
6220.000000	85.330	-120.9844
6300.000000	85.207	-119.7190
6400.000000	85.106	-117.8378
6500.000000	85.061	-115.7327
6600.000000	85.086	-113.5239
6700.000000	85.175	-111.2489
6800.000000	85.335	-108.9963
6900.000000	85.603	-106.7562
7000.000000	85.991	-104.7184
7100.000000	86.472	-102.9391
7200.000000	87.046	-101.5822
7300.000000	87.701	-100.9136
7400.000000	88.434	-101.0152
7500.000000	89.240	-102.1797
7620.000000	90.237	-105.4960
7750.000000	91.330	-111.9677
7880.000000	91.871	-121.5051
8000.000000	91.822	-131.7670
8120.000000	91.205	-141.2873
8250.000000	90.120	-149.1807
8380.000000	88.840	-154.4018
8500.000000	87.613	-157.0730
8620.000000	86.405	-158.0379
8750.000000	85.147	-157.4757
8850.000000	84.264	-156.2005
9000.000000	83.087	-153.2217
9120.000000	82.268	-150.1803
9250.000000	81.515	-146.5215
9380.000000	80.882	-142.6613
9500.000000	80.408	-138.9831
9620.000000	80.015	-135.2433
9750.000000	79.687	-131.4220
9880.000000	79.447	-127.7386
10000.000000	79.316	-124.5181
10150.000000	79.242	-121.0543
10300.000000	79.243	-118.1280
10440.000000	79.306	-116.2761
10600.000000	79.425	-115.1246
10750.000000	79.503	-115.2371
10900.000000	79.502	-116.4019
11060.000000	79.311	-118.6718
11200.000000	78.952	-121.0292
11380.000000	78.196	-123.6398
11500.000000	77.536	-124.7308
11720.000000	76.130	-124.8398
11800.000000	75.622	-124.1254
12060.000000	73.934	-119.7925
12200.000000	73.038	-116.2711
12410.000000	72.046	-109.9951
12500.000000	71.635	-107.1596
12650.000000	71.015	-101.8422
12800.000000	70.505	-96.3081
13150.000000	69.686	-82.1602
13200.000000	69.589	-80.1894
13400.000000	69.353	-71.8052
13600.000000	69.253	-63.3631
13800.000000	69.392	-54.7419
14000.000000	69.814	-46.4312
14300.000000	70.929	-35.9298
14500.000000	71.633	-34.9159
14750.000000	71.022	-21.7866
15000.000000	73.701	-8.2383
15250.000000	77.102	-9.0840
15500.000000	79.384	-27.6915
15750.000000	78.435	-46.1703
16000.000000	76.673	-52.4248
16250.000000	75.109	-51.5872
16500.000000	74.539	-48.3300
16750.000000	73.718	-46.4808
17000.000000	73.089	-42.6229
17250.000000	72.833	-38.2431
17500.000000	72.778	-33.5983
17750.000000	73.242	-30.2319
18000.000000	74.035	-30.3126
18250.000000	75.013	-35.9546
18500.000000	75.291	-48.7504
18750.000000	74.195	-62.4740
19000.000000	72.324	-70.3626
19250.000000	70.475	-72.9474
19500.000000	69.194	-73.4849
19750.000000	68.352	-75.8038
