* Measurement data measured by REW V5.20.4
* Source: Microphone (2- KM-HIFI-384KHZ), MICROPHONE (Master Volume), L, volume: 0.250
* Format: 256k Log Swept Sine, 1 sweep at -6.0 dBFS with no timing reference
* Dated: 22 May, 2022 10:33:09 PM
* REW Settings:
*  C-weighting compensation: Off
*  Target level: 75.0 dB
* Note: 
* Measurement: EX15 L
* Smoothing: None
* Frequency Step: 1/48 octave
* Start Frequency: 20.300 Hz
*
* Freq(Hz)	SPL(dB)	Phase(degrees)
20.299999	86.194	-120.6415
20.600000	86.317	-121.1398
20.900000	86.426	-121.6043
21.200001	86.528	-122.0470
21.400000	86.595	-122.3126
21.799999	86.731	-122.7663
22.000000	86.801	-122.9645
22.400000	86.948	-123.3535
22.700001	87.060	-123.6624
23.000000	87.169	-124.0129
23.299999	87.271	-124.4159
23.600000	87.365	-124.8550
24.000000	87.479	-125.4668
24.299999	87.560	-125.9208
24.700001	87.665	-126.4808
25.000000	87.748	-126.8509
25.400000	87.866	-127.2850
25.799999	87.993	-127.6681
26.200001	88.121	-128.0457
26.500000	88.212	-128.3403
26.900000	88.315	-128.7347
27.200001	88.378	-129.0216
27.600000	88.454	-129.3778
28.000000	88.530	-129.7115
28.500000	88.642	-130.1820
29.000000	88.770	-130.7834
29.500000	88.898	-131.4898
30.000000	89.016	-132.1611
30.400000	89.107	-132.6201
30.700001	89.175	-132.9214
31.100000	89.264	-133.3113
31.500000	89.349	-133.7281
32.000000	89.442	-134.2895
32.500000	89.523	-134.8552
33.000000	89.605	-135.3879
33.500000	89.693	-135.9154
34.000000	89.785	-136.4575
34.500000	89.878	-137.0000
35.000000	89.964	-137.5007
35.500000	90.046	-137.9628
36.000000	90.128	-138.4193
36.500000	90.207	-138.8993
37.000000	90.283	-139.3904
37.500000	90.359	-139.8787
38.200001	90.463	-140.5394
38.700001	90.533	-140.9957
39.500000	90.640	-141.6833
40.000000	90.706	-142.1050
40.599998	90.782	-142.6288
41.200001	90.851	-143.1455
41.799999	90.917	-143.6391
42.500000	90.997	-144.2534
43.099998	91.061	-144.8504
43.700001	91.115	-145.4310
44.400002	91.184	-146.0034
45.000000	91.255	-146.4490
45.500000	91.312	-146.8273
46.200001	91.380	-147.3641
46.799999	91.428	-147.8687
47.500000	91.471	-148.5277
48.200001	91.514	-149.0921
48.700001	91.567	-149.3970
49.400002	91.673	-149.8788
50.000000	91.745	-150.4294
50.799999	91.772	-151.0514
51.500000	91.787	-151.3930
52.200001	91.830	-151.8680
53.000000	91.882	-152.6208
53.799999	91.926	-153.2285
54.500000	91.975	-153.6488
55.200001	92.021	-154.1280
56.000000	92.053	-154.7402
57.000000	92.084	-155.3513
58.000000	92.152	-155.8573
59.000000	92.207	-156.7179
60.000000	92.217	-157.4895
60.799999	92.265	-157.8974
61.500000	92.318	-158.3256
62.200001	92.336	-158.7478
63.000000	92.333	-159.0100
64.000000	92.387	-159.3576
65.000000	92.439	-160.2558
66.000000	92.417	-160.8867
67.000000	92.481	-161.2273
68.000000	92.555	-162.0154
69.000000	92.538	-162.2996
70.000000	92.526	-162.4417
71.000000	92.489	-163.2305
72.000000	92.492	-163.8316
73.000000	92.591	-164.3391
74.000000	92.629	-164.9130
75.000000	92.628	-165.3675
76.199997	92.636	-166.1161
77.500000	92.663	-166.6417
78.800003	92.674	-167.2538
80.000000	92.684	-167.7275
81.199997	92.704	-168.2962
82.500000	92.726	-168.8814
83.800003	92.721	-169.4693
85.000000	92.731	-169.8731
86.199997	92.736	-170.3732
87.500000	92.733	-170.8849
88.500000	92.733	-171.2956
90.000000	92.731	-171.8710
91.199997	92.730	-172.2867
92.500000	92.729	-172.7579
93.800003	92.728	-173.2442
95.000000	92.723	-173.6757
96.199997	92.720	-174.0829
97.500000	92.706	-174.5227
98.800003	92.705	-174.9231
100.000000	92.702	-175.3846
101.500000	92.684	-175.8101
103.000000	92.669	-176.2993
104.400002	92.669	-176.6869
106.000000	92.649	-177.1855
107.500000	92.632	-177.6149
109.000000	92.617	-178.0200
110.599998	92.592	-178.4855
112.000000	92.574	-178.8671
113.800003	92.558	-179.2831
115.000000	92.546	-179.6440
117.199997	92.516	179.7857
118.000000	92.504	179.6135
120.599998	92.464	179.0026
122.000000	92.441	178.6725
124.099998	92.413	178.2056
125.000000	92.400	178.0069
126.500000	92.368	177.7013
128.000000	92.345	177.3274
131.500000	92.298	176.6594
132.000000	92.291	176.5389
134.000000	92.262	176.1151
136.000000	92.224	175.7701
138.000000	92.189	175.4027
140.000000	92.150	175.0323
143.000000	92.103	174.5348
145.000000	92.058	174.1360
147.500000	92.007	173.7967
150.000000	92.003	173.0064
152.500000	91.924	173.0499
155.000000	91.866	172.6747
157.500000	91.816	172.3598
160.000000	91.755	172.0114
162.500000	91.703	171.6724
165.000000	91.649	171.3517
167.500000	91.592	171.0843
170.000000	91.537	170.7861
172.500000	91.489	170.5502
175.000000	91.420	170.1670
177.500000	91.394	170.0023
180.000000	91.312	169.7440
182.500000	91.289	169.5857
185.000000	91.241	169.3340
187.500000	91.179	169.1524
190.000000	91.121	168.8876
192.500000	91.080	168.7074
195.000000	91.019	168.5624
197.500000	90.976	168.3538
200.000000	90.931	168.2451
203.000000	90.873	168.0587
206.000000	90.823	167.9221
209.000000	90.764	167.8213
212.000000	90.714	167.7009
214.000000	90.686	167.5588
218.000000	90.611	167.3401
220.000000	90.576	167.2614
224.000000	90.499	167.1071
227.000000	90.444	166.9417
230.000000	90.382	166.8026
233.000000	90.324	166.7350
236.000000	90.274	166.6368
240.000000	90.202	166.4701
243.000000	90.132	166.4089
247.000000	90.063	166.3187
250.000000	90.000	166.5926
254.000000	89.928	166.2263
258.000000	89.861	166.1628
262.000000	89.789	166.2043
265.000000	89.744	166.2393
269.000000	89.685	166.2654
272.000000	89.639	166.2454
276.000000	89.568	166.2018
280.000000	89.507	166.1660
285.000000	89.419	166.1402
290.000000	89.325	166.2154
295.000000	89.240	166.1808
300.000000	89.153	166.2142
304.000000	89.081	166.1983
307.000000	89.025	166.2350
311.000000	88.950	166.3031
315.000000	88.878	166.3419
320.000000	88.776	166.4091
325.000000	88.678	166.5623
330.000000	88.577	166.7032
335.000000	88.474	166.9284
340.000000	88.369	167.1786
345.000000	88.274	167.5936
350.000000	88.166	167.9520
355.000000	88.112	168.4768
360.000000	88.052	169.0148
365.000000	88.009	169.5313
370.000000	87.986	169.9930
375.000000	87.962	170.2973
382.000000	87.931	170.5981
387.000000	87.904	170.7156
395.000000	87.835	170.9333
400.000000	87.794	171.1003
406.000000	87.731	171.2680
412.000000	87.666	171.4856
418.000000	87.600	171.7559
425.000000	87.512	172.0252
431.000000	87.456	172.2617
437.000000	87.382	172.5723
444.000000	87.303	172.9217
450.000000	87.279	173.3820
455.000000	87.179	173.4837
462.000000	87.110	173.9165
468.000000	87.042	174.2713
475.000000	86.970	174.7013
482.000000	86.895	175.1272
487.000000	86.855	175.4332
494.000000	86.780	175.9376
500.000000	86.729	176.3026
508.000000	86.653	176.8510
515.000000	86.594	177.3813
522.000000	86.532	177.8452
530.000000	86.469	178.4215
538.000000	86.395	179.0533
545.000000	86.345	179.5512
552.000000	86.282	-179.8809
560.000000	86.226	-179.2614
570.000000	86.151	-178.4546
580.000000	86.085	-177.6671
590.000000	86.019	-176.7868
600.000000	85.951	-175.9644
608.000000	85.904	-175.2571
615.000000	85.862	-174.6703
622.000000	85.821	-173.9934
630.000000	85.774	-173.3055
640.000000	85.720	-172.3721
650.000000	85.703	-171.5042
660.000000	85.621	-170.4673
670.000000	85.583	-169.5466
680.000000	85.546	-168.4860
690.000000	85.502	-167.5816
700.000000	85.480	-166.5056
710.000000	85.448	-165.5736
720.000000	85.418	-164.5781
730.000000	85.403	-163.4532
740.000000	85.392	-162.4075
750.000000	85.406	-161.1535
762.000000	85.381	-160.1178
775.000000	85.402	-158.7510
788.000000	85.414	-157.3464
800.000000	85.436	-156.1617
812.000000	85.474	-154.8334
825.000000	85.515	-153.4849
838.000000	85.570	-152.1830
850.000000	85.633	-150.7937
862.000000	85.704	-149.7886
875.000000	85.791	-148.5806
885.000000	85.865	-147.5930
900.000000	85.985	-146.2290
912.000000	86.088	-145.2556
925.000000	86.216	-144.1232
938.000000	86.363	-143.0762
950.000000	86.486	-142.1006
962.000000	86.679	-141.0179
975.000000	86.984	-140.1605
988.000000	87.349	-141.4622
1000.000000	87.206	-142.3047
1015.000000	87.215	-141.1287
1030.000000	87.340	-140.1678
1044.000000	87.496	-139.6160
1060.000000	87.681	-139.2420
1075.000000	87.870	-139.0458
1090.000000	88.061	-139.1288
1106.000000	88.297	-140.1759
1120.000000	88.264	-142.7986
1138.000000	87.632	-142.2911
1150.000000	87.602	-139.7176
1172.000000	87.861	-137.3633
1180.000000	87.945	-136.9831
1206.000000	88.166	-136.5549
1220.000000	88.289	-136.5011
1241.000000	88.458	-136.3388
1250.000000	88.534	-136.2346
1265.000000	88.633	-136.2186
1280.000000	88.724	-136.1302
1315.000000	88.918	-135.9386
1320.000000	88.944	-135.8889
1340.000000	89.039	-135.7837
1360.000000	89.177	-135.6061
1380.000000	89.270	-135.3998
1400.000000	89.355	-135.1857
1430.000000	89.477	-134.8386
1450.000000	89.560	-134.5655
1475.000000	89.657	-134.1908
1500.000000	89.751	-133.8446
1525.000000	89.843	-133.4819
1550.000000	89.910	-132.9611
1575.000000	89.972	-132.5225
1600.000000	90.040	-132.0673
1625.000000	90.103	-131.5809
1650.000000	90.173	-131.0804
1675.000000	90.241	-130.5547
1700.000000	90.313	-130.0394
1725.000000	90.384	-129.4926
1750.000000	90.458	-128.9688
1775.000000	90.540	-128.3956
1800.000000	90.624	-127.8652
1825.000000	90.707	-127.2773
1850.000000	90.803	-126.7117
1875.000000	90.890	-126.1830
1900.000000	90.988	-125.7047
1925.000000	91.086	-125.1534
1950.000000	91.182	-124.6550
1975.000000	91.275	-124.2074
2000.000000	91.370	-123.7480
2030.000000	91.489	-123.1939
2060.000000	91.608	-122.6897
2090.000000	91.726	-122.1751
2120.000000	91.847	-121.6873
2140.000000	91.923	-121.3710
2180.000000	92.086	-120.7716
2200.000000	92.161	-120.4828
2240.000000	92.319	-119.8859
2270.000000	92.438	-119.4606
2300.000000	92.552	-119.0389
2330.000000	92.671	-118.6237
2360.000000	92.786	-118.1901
2400.000000	92.936	-117.5788
2430.000000	93.052	-117.0573
2470.000000	93.212	-116.2642
2500.000000	93.349	-115.5656
2540.000000	93.566	-114.5563
2580.000000	93.854	-113.5560
2620.000000	94.213	-112.9446
2650.000000	94.502	-112.9095
2690.000000	94.860	-113.4298
2720.000000	95.089	-114.0795
2760.000000	95.338	-115.1054
2800.000000	95.536	-116.1000
2850.000000	95.739	-117.2663
2900.000000	95.908	-118.3667
2950.000000	96.051	-119.3782
3000.000000	96.177	-120.3266
3040.000000	96.262	-121.1013
3070.000000	96.315	-121.6507
3110.000000	96.382	-122.3277
3150.000000	96.431	-122.9565
3200.000000	96.488	-123.6341
3250.000000	96.536	-124.1851
3300.000000	96.585	-124.6441
3350.000000	96.650	-124.9988
3400.000000	96.728	-125.3934
3450.000000	96.825	-125.8669
3500.000000	96.918	-126.5433
3550.000000	96.993	-127.3423
3600.000000	97.037	-128.2408
3650.000000	97.050	-129.1205
3700.000000	97.032	-129.8781
3750.000000	97.002	-130.5177
3820.000000	96.948	-131.1672
3870.000000	96.911	-131.4838
3950.000000	96.856	-131.8238
4000.000000	96.826	-132.0164
4060.000000	96.793	-132.1415
4120.000000	96.763	-132.2996
4180.000000	96.732	-132.3871
4250.000000	96.695	-132.4094
4310.000000	96.656	-132.3987
4370.000000	96.625	-132.2851
4440.000000	96.599	-132.1237
4500.000000	96.586	-131.9012
4550.000000	96.575	-131.7109
4620.000000	96.569	-131.3886
4680.000000	96.577	-131.1088
4750.000000	96.595	-130.7618
4820.000000	96.625	-130.4543
4870.000000	96.645	-130.2529
4940.000000	96.681	-129.9904
5000.000000	96.716	-129.7925
5080.000000	96.763	-129.5997
5150.000000	96.810	-129.4585
5220.000000	96.864	-129.3926
5300.000000	96.923	-129.3701
5380.000000	96.982	-129.4519
5450.000000	97.032	-129.5985
5520.000000	97.068	-129.7882
5600.000000	97.095	-130.1131
5700.000000	97.119	-130.5911
5800.000000	97.121	-131.1595
5900.000000	97.101	-131.7576
6000.000000	97.065	-132.4057
6080.000000	97.012	-132.8658
6150.000000	96.959	-133.2706
6220.000000	96.891	-133.6039
6300.000000	96.801	-133.9833
6400.000000	96.640	-134.2122
6500.000000	96.307	-132.8851
6600.000000	96.797	-131.4500
6700.000000	96.791	-133.1826
6800.000000	96.659	-133.6277
6900.000000	96.600	-133.6259
7000.000000	96.620	-133.4220
7100.000000	96.692	-133.1440
7200.000000	96.797	-132.9483
7300.000000	96.950	-132.8146
7400.000000	97.169	-132.5143
7500.000000	97.439	-133.3268
7620.000000	97.756	-134.4546
7750.000000	98.249	-136.4052
7880.000000	98.570	-139.5923
8000.000000	98.813	-143.8508
8120.000000	98.939	-149.4718
8250.000000	98.812	-156.8665
8380.000000	98.311	-164.8094
8500.000000	97.504	-171.5854
8620.000000	96.443	-177.0367
8750.000000	95.102	178.8802
8850.000000	94.022	176.9992
9000.000000	92.411	175.9317
9120.000000	91.174	176.3139
9250.000000	89.909	177.6727
9380.000000	88.694	179.7801
9500.000000	87.658	-177.6891
9620.000000	86.688	-174.6680
9750.000000	85.681	-171.2660
9880.000000	84.753	-167.2714
10000.000000	83.978	-163.5275
10150.000000	83.005	-158.3286
10300.000000	82.112	-152.7357
10440.000000	81.357	-147.3077
10600.000000	80.742	-140.2572
10750.000000	80.258	-134.9668
10900.000000	79.696	-129.4059
11060.000000	79.197	-123.7504
11200.000000	78.697	-118.3355
11380.000000	78.169	-111.4784
11500.000000	77.902	-106.6301
11720.000000	77.353	-97.5670
11800.000000	77.194	-94.3884
12060.000000	76.767	-83.0245
12200.000000	76.688	-77.5691
12410.000000	76.549	-69.2140
12500.000000	76.542	-65.4856
12650.000000	76.570	-59.2973
12800.000000	76.637	-53.2087
13150.000000	77.099	-38.9677
13200.000000	77.200	-37.2508
13400.000000	77.537	-28.9966
13600.000000	78.068	-21.5974
13800.000000	78.707	-14.0630
14000.000000	79.590	-7.1873
14300.000000	81.174	3.1082
14500.000000	82.598	9.1264
14750.000000	84.779	14.9257
15000.000000	87.768	16.5831
15250.000000	91.610	8.0031
15500.000000	94.532	-24.4580
15750.000000	92.139	-58.2009
16000.000000	88.678	-68.2042
16250.000000	86.147	-68.2153
16500.000000	84.379	-64.9149
16750.000000	83.164	-60.7943
17000.000000	82.463	-56.9360
17250.000000	82.056	-54.9724
17500.000000	81.774	-55.4614
17750.000000	81.150	-58.9376
18000.000000	79.978	-64.9870
18250.000000	78.050	-68.9194
18500.000000	75.767	-69.7636
18750.000000	73.235	-64.8259
19000.000000	71.048	-55.6008
19250.000000	69.356	-44.5598
19500.000000	68.523	-34.0489
19750.000000	67.519	-27.8518
