* Measurement data measured by REW V5.20.4
* Source: Microphone (BGVP HiFi Audio-T01s), MICROPHONE (Master Volume), R, volume: 0.260
* Format: 256k Log Swept Sine, 1 sweep at -6.0 dBFS with no timing reference
* Dated: 30 May, 2023 12:28:44 AM
* REW Settings:
*  C-weighting compensation: Off
*  Target level: 75.0 dB
* Note: 
* Measurement: HA-FDX1 Green R
* Smoothing: None
* Frequency Step: 1/96 octave
* Start Frequency: 0.366 Hz
*
* Freq(Hz) SPL(dB) Phase(degrees)
0.366299 42.334 -131.5807
0.368954 42.314 -131.3905
0.371627 42.294 -131.1949
0.374320 42.274 -130.9939
0.377033 42.254 -130.7874
0.379765 42.234 -130.5755
0.382517 42.213 -130.3579
0.385289 42.193 -130.1347
0.388081 42.172 -129.9058
0.390893 42.151 -129.6710
0.393725 42.130 -129.4304
0.396578 42.109 -129.1838
0.399452 42.087 -128.9313
0.402347 42.066 -128.6726
0.405262 42.044 -128.4078
0.408199 42.022 -128.1367
0.411157 42.000 -127.8594
0.414136 41.978 -127.5756
0.417137 41.956 -127.2854
0.420160 41.933 -126.9887
0.423205 41.911 -126.6854
0.426272 41.888 -126.3754
0.429361 41.865 -126.0587
0.432472 41.842 -125.7352
0.435606 41.819 -125.4048
0.438762 41.795 -125.0674
0.441942 41.772 -124.7229
0.445144 41.748 -124.3714
0.448370 41.724 -124.0127
0.451619 41.700 -123.6467
0.454892 41.675 -123.2734
0.458188 41.651 -122.8928
0.461508 41.626 -122.5046
0.464852 41.601 -122.1089
0.468221 41.576 -121.7056
0.471614 41.551 -121.2946
0.475031 41.526 -120.8759
0.478474 41.500 -120.4493
0.481941 41.474 -120.0149
0.485433 41.448 -119.5724
0.488951 41.422 -119.1220
0.492494 41.396 -118.6635
0.496063 41.369 -118.1967
0.499658 41.343 -117.7218
0.503278 41.316 -117.2386
0.506925 41.289 -116.7470
0.510599 41.261 -116.2470
0.514299 41.234 -115.7385
0.518025 41.206 -115.2215
0.521779 41.178 -114.6958
0.525560 41.150 -114.1615
0.529369 41.122 -113.6185
0.533205 41.093 -113.0666
0.537069 41.064 -112.5060
0.540960 41.036 -111.9364
0.544880 41.006 -111.3580
0.548829 40.977 -110.7705
0.552806 40.947 -110.1740
0.556812 40.918 -109.5684
0.560847 40.888 -108.9536
0.564911 40.857 -108.3297
0.569004 40.827 -107.6966
0.573128 40.796 -107.0542
0.577281 40.766 -106.4025
0.581464 40.734 -105.7415
0.585677 40.703 -105.0711
0.589921 40.672 -104.3914
0.594196 40.640 -103.7022
0.598502 40.608 -103.0035
0.602839 40.576 -102.2954
0.607207 40.543 -101.5779
0.611608 40.510 -100.8508
0.616040 40.477 -100.1142
0.620504 40.444 -99.3681
0.625000 40.411 -98.6125
0.629529 40.377 -97.8473
0.634091 40.343 -97.0726
0.638686 40.309 -96.2884
0.643314 40.275 -95.4947
0.647976 40.240 -94.6915
0.652671 40.205 -93.8788
0.657401 40.170 -93.0566
0.662164 40.135 -92.2250
0.666963 40.099 -91.3841
0.671796 40.063 -90.5337
0.676664 40.027 -89.6741
0.681567 39.990 -88.8052
0.686506 39.954 -87.9270
0.691481 39.917 -87.0397
0.696492 39.879 -86.1434
0.701539 39.842 -85.2379
0.706622 39.804 -84.3236
0.711743 39.766 -83.4004
0.716900 39.728 -82.4684
0.722095 39.689 -81.5278
0.727328 39.650 -80.5786
0.732599 39.614 -79.6209
0.737907 39.680 -78.6405
0.743254 39.753 -77.6249
0.748640 39.832 -76.5745
0.754065 39.918 -75.4897
0.759530 40.011 -74.3709
0.765033 40.111 -73.2185
0.770577 40.217 -72.0331
0.776161 40.329 -70.8152
0.781785 40.449 -69.5653
0.787451 40.574 -68.2841
0.793157 40.706 -66.9723
0.798904 40.845 -65.6305
0.804694 40.990 -64.2594
0.810525 41.141 -62.8600
0.816398 41.299 -61.4329
0.822314 41.462 -59.9792
0.828273 41.631 -58.4997
0.834275 41.807 -56.9955
0.840320 41.988 -55.4676
0.846410 42.175 -53.9171
0.852543 42.368 -52.3452
0.858721 42.566 -50.7531
0.864944 42.769 -49.1421
0.871211 42.977 -47.5136
0.877525 43.191 -45.8689
0.883883 43.409 -44.2097
0.890288 43.632 -42.5373
0.896740 43.860 -40.8536
0.903238 44.092 -39.1602
0.909783 44.328 -37.4588
0.916376 44.568 -35.7514
0.923016 44.811 -34.0399
0.929705 45.058 -32.3263
0.936442 45.308 -30.6128
0.943228 45.562 -28.9016
0.950063 45.817 -27.1949
0.956947 46.075 -25.4953
0.963882 46.336 -23.8051
0.970866 46.598 -22.1270
0.977902 46.861 -20.4637
0.984988 47.126 -18.8180
0.992126 47.391 -17.1928
0.999315 47.656 -15.5912
1.006557 47.922 -14.0163
1.013850 48.187 -12.4714
1.021197 48.451 -10.9599
1.028597 48.714 -9.4853
1.036051 48.975 -8.0513
1.043558 49.234 -6.6616
1.051121 49.490 -5.3203
1.058737 49.743 -4.0313
1.066409 49.992 -2.7988
1.074137 50.237 -1.6274
1.081921 50.477 -0.5214
1.089761 50.711 0.5144
1.097658 50.939 1.4752
1.105612 51.164 1.5912
1.113623 51.389 1.6024
1.121693 51.616 1.6216
1.129821 51.845 1.6484
1.138009 52.074 1.6828
1.146255 52.305 1.7245
1.154561 52.536 1.7731
1.162928 52.769 1.8285
1.171355 53.002 1.8903
1.179843 53.237 1.9583
1.188393 53.472 2.0321
1.197004 53.708 2.1114
1.205678 53.945 2.1958
1.214415 54.182 2.2851
1.223215 54.420 2.3787
1.232079 54.659 2.4763
1.241007 54.898 2.5774
1.250000 55.137 2.6816
1.259058 55.377 2.7884
1.268182 55.617 2.8974
1.277371 55.857 3.0080
1.286628 56.097 3.1196
1.295951 56.337 3.2318
1.305342 56.577 3.3438
1.314801 56.817 3.4552
1.324329 57.056 3.5652
1.333925 57.295 3.6732
1.343592 57.533 3.7785
1.353328 57.770 3.8803
1.363135 58.007 3.9779
1.373013 58.243 4.0706
1.382962 58.477 4.1574
1.392983 58.711 4.2376
1.403078 58.943 4.3102
1.413245 59.174 4.3744
1.423486 59.403 4.4291
1.433801 59.630 4.4734
1.444191 59.855 4.5063
1.454656 60.078 4.5266
1.465197 60.299 4.5315
1.475815 60.517 4.4706
1.486509 60.733 4.3952
1.497281 60.946 4.3056
1.508131 61.157 4.2022
1.519059 61.365 4.0851
1.530067 61.570 3.9549
1.541154 61.774 3.8117
1.552322 61.975 3.6559
1.563571 62.174 3.4881
1.574901 62.370 3.3085
1.586314 62.565 3.1176
1.597809 62.757 2.9159
1.609387 62.948 2.7039
1.621049 63.137 2.4821
1.632796 63.324 2.2510
1.644628 63.510 2.0113
1.656546 63.695 1.7635
1.668550 63.878 1.5082
1.680641 64.059 1.2463
1.692819 64.240 0.9783
1.705086 64.420 0.7050
1.717442 64.599 0.4272
1.729887 64.778 0.1457
1.742423 64.956 -0.1387
1.755049 65.134 -0.4251
1.767767 65.312 -0.7125
1.780577 65.490 -1.0000
1.793480 65.668 -1.2865
1.806476 65.847 -1.5710
1.819566 66.027 -1.8525
1.832752 66.208 -2.1298
1.846033 66.388 -2.4095
1.859410 66.566 -2.6960
1.872884 66.743 -2.9891
1.886456 66.917 -3.2886
1.900126 67.091 -3.5945
1.913895 67.262 -3.9065
1.927764 67.432 -4.2245
1.941733 67.601 -4.5482
1.955804 67.768 -4.8774
1.969976 67.933 -5.2119
1.984251 68.098 -5.5515
1.998630 68.261 -5.8960
2.013113 68.423 -6.2450
2.027701 68.583 -6.5983
2.042394 68.743 -6.9556
2.057194 68.902 -7.3167
2.072102 69.061 -7.6811
2.087117 69.218 -8.0486
2.102241 69.375 -8.4189
2.117475 69.531 -8.7915
2.132819 69.687 -9.1661
2.148274 69.843 -9.5422
2.163841 69.999 -9.9196
2.179522 70.154 -10.2977
2.195315 70.310 -10.6761
2.211223 70.465 -11.0561
2.227247 70.619 -11.4405
2.243386 70.772 -11.8290
2.259643 70.922 -12.2216
2.276017 71.072 -12.6182
2.292510 71.220 -13.0186
2.309123 71.367 -13.4226
2.325855 71.512 -13.8301
2.342710 71.657 -14.2409
2.359686 71.800 -14.6548
2.376785 71.942 -15.0717
2.394008 72.083 -15.4914
2.411356 72.223 -15.9137
2.428830 72.362 -16.3383
2.446430 72.501 -16.7650
2.464158 72.639 -17.1936
2.482014 72.776 -17.6239
2.500000 72.913 -18.0555
2.518116 73.049 -18.4884
2.536363 73.185 -18.9220
2.554743 73.321 -19.3563
2.573256 73.456 -19.7912
2.591902 73.591 -20.2283
2.610684 73.723 -20.6679
2.629603 73.855 -21.1099
2.648658 73.985 -21.5540
2.667851 74.114 -22.0003
2.687183 74.242 -22.4486
2.706656 74.368 -22.8988
2.726269 74.494 -23.3508
2.746025 74.618 -23.8043
2.765924 74.742 -24.2593
2.785967 74.864 -24.7156
2.806155 74.986 -25.1731
2.826490 75.107 -25.6316
2.846972 75.228 -26.0910
2.867602 75.348 -26.5510
2.888382 75.467 -27.0114
2.909312 75.587 -27.4722
2.930394 75.706 -27.9331
2.951629 75.824 -28.3944
2.973018 75.941 -28.8566
2.994561 76.057 -29.3195
3.016261 76.171 -29.7832
3.038118 76.284 -30.2475
3.060134 76.397 -30.7126
3.082309 76.508 -31.1782
3.104645 76.618 -31.6444
3.127142 76.727 -32.1111
3.149803 76.836 -32.5783
3.172627 76.944 -33.0458
3.195618 77.051 -33.5137
3.218774 77.158 -33.9819
3.242099 77.264 -34.4504
3.265593 77.370 -34.9190
3.289256 77.476 -35.3878
3.313092 77.581 -35.8564
3.337100 77.685 -36.3247
3.361282 77.788 -36.7926
3.385639 77.890 -37.2602
3.410173 77.991 -37.7276
3.434884 78.092 -38.1948
3.459775 78.191 -38.6619
3.484846 78.290 -39.1290
3.510098 78.387 -39.5962
3.535534 78.485 -40.0636
3.561154 78.581 -40.5312
3.586959 78.678 -40.9992
3.612952 78.773 -41.4676
3.639133 78.869 -41.9366
3.665504 78.965 -42.4063
3.692065 79.059 -42.8758
3.718820 79.153 -43.3445
3.745768 79.246 -43.8127
3.772911 79.339 -44.2805
3.800251 79.430 -44.7481
3.827789 79.521 -45.2155
3.855527 79.611 -45.6832
3.883466 79.701 -46.1511
3.911607 79.790 -46.6195
3.939952 79.879 -47.0887
3.968503 79.967 -47.5589
3.997260 80.055 -48.0302
4.026226 80.142 -48.5030
4.055401 80.230 -48.9766
4.084789 80.316 -49.4502
4.114388 80.402 -49.9237
4.144203 80.487 -50.3975
4.174234 80.572 -50.8716
4.204482 80.656 -51.3463
4.234950 80.739 -51.8216
4.265638 80.822 -52.2978
4.296548 80.904 -52.7751
4.327683 80.986 -53.2537
4.359043 81.067 -53.7337
4.390630 81.148 -54.2155
4.422447 81.228 -54.6987
4.454494 81.308 -55.1828
4.486773 81.387 -55.6678
4.519286 81.465 -56.1536
4.552034 81.543 -56.6404
4.585020 81.620 -57.1281
4.618245 81.696 -57.6167
4.651711 81.772 -58.1064
4.685419 81.848 -58.5971
4.719372 81.922 -59.0889
4.753570 81.997 -59.5818
4.788016 82.070 -60.0759
4.822712 82.143 -60.5712
4.857660 82.215 -61.0674
4.892860 82.286 -61.5646
4.928316 82.357 -62.0626
4.964029 82.427 -62.5611
5.000000 82.496 -63.0602
5.036232 82.564 -63.5596
5.072727 82.632 -64.0592
5.109486 82.700 -64.5587
5.146511 82.767 -65.0583
5.183805 82.833 -65.5581
5.221369 82.898 -66.0583
5.259205 82.963 -66.5585
5.297316 83.026 -67.0587
5.335702 83.089 -67.5586
5.374367 83.152 -68.0582
5.413311 83.214 -68.5572
5.452538 83.275 -69.0554
5.492050 83.336 -69.5527
5.531847 83.397 -70.0488
5.571934 83.457 -70.5439
5.612310 83.516 -71.0380
5.652979 83.574 -71.5311
5.693943 83.632 -72.0232
5.735204 83.690 -72.5144
5.776763 83.747 -73.0048
5.818624 83.804 -73.4943
5.860788 83.861 -73.9830
5.903258 83.917 -74.4702
5.946035 83.974 -74.9555
5.989123 84.029 -75.4391
6.032523 84.084 -75.9216
6.076237 84.139 -76.4031
6.120268 84.194 -76.8841
6.164618 84.249 -77.3651
6.209289 84.303 -77.8463
6.254284 84.358 -78.3278
6.299605 84.412 -78.8078
6.345255 84.467 -79.2866
6.391235 84.521 -79.7649
6.437549 84.575 -80.2431
6.484198 84.629 -80.7218
6.531185 84.682 -81.2016
6.578513 84.736 -81.6831
6.626183 84.790 -82.1663
6.674199 84.844 -82.6497
6.722563 84.898 -83.1335
6.771278 84.951 -83.6182
6.820345 85.005 -84.1041
6.869768 85.058 -84.5916
6.919549 85.111 -85.0811
6.969691 85.164 -85.5729
7.020196 85.217 -86.0669
7.071068 85.269 -86.5625
7.122308 85.322 -87.0599
7.173919 85.374 -87.5588
7.225904 85.426 -88.0593
7.278266 85.477 -88.5611
7.331007 85.528 -89.0643
7.384131 85.579 -89.5694
7.437639 85.629 -90.0763
7.491535 85.679 -90.5847
7.545822 85.728 -91.0941
7.600502 85.777 -91.6039
7.655579 85.826 -92.1137
7.711054 85.874 -92.6230
7.766932 85.922 -93.1328
7.823214 85.969 -93.6430
7.879904 86.015 -94.1532
7.937005 86.061 -94.6627
7.994520 86.107 -95.1711
8.052452 86.153 -95.6777
8.110803 86.198 -96.1825
8.169578 86.242 -96.6861
8.228777 86.286 -97.1882
8.288406 86.330 -97.6886
8.348468 86.373 -98.1871
8.408964 86.416 -98.6835
8.469899 86.459 -99.1775
8.531276 86.502 -99.6689
8.593097 86.545 -100.1580
8.655366 86.587 -100.6449
8.718086 86.629 -101.1299
8.781260 86.671 -101.6132
8.844893 86.713 -102.0946
8.908987 86.755 -102.5733
8.973545 86.796 -103.0498
9.038571 86.838 -103.5244
9.104069 86.879 -103.9976
9.170040 86.921 -104.4698
9.236490 86.962 -104.9404
9.303422 87.003 -105.4091
9.370838 87.044 -105.8760
9.438744 87.085 -106.3415
9.507140 87.125 -106.8058
9.576033 87.166 -107.2689
9.645425 87.206 -107.7304
9.715320 87.246 -108.1903
9.785721 87.285 -108.6485
9.856632 87.325 -109.1048
9.928058 87.364 -109.5593
10.000000 87.402 -110.0119
10.072464 87.441 -110.4624
10.145453 87.479 -110.9107
10.218971 87.517 -111.3568
10.293022 87.554 -111.8004
10.367610 87.592 -112.2413
10.442738 87.629 -112.6796
10.518411 87.665 -113.1154
10.594631 87.702 -113.5491
10.671404 87.738 -113.9803
10.748734 87.774 -114.4087
10.826623 87.809 -114.8344
10.905077 87.844 -115.2581
10.984100 87.879 -115.6803
11.063695 87.914 -116.1005
11.143867 87.949 -116.5185
11.224621 87.983 -116.9345
11.305959 88.017 -117.3491
11.387886 88.050 -117.7627
11.470407 88.083 -118.1748
11.553527 88.116 -118.5853
11.637249 88.148 -118.9943
11.721577 88.180 -119.4018
11.806517 88.211 -119.8078
11.892071 88.242 -120.2123
11.978246 88.272 -120.6149
12.065045 88.301 -121.0151
12.152473 88.330 -121.4130
12.240536 88.358 -121.8085
12.329235 88.386 -122.2014
12.418578 88.413 -122.5915
12.508568 88.440 -122.9784
12.599211 88.466 -123.3620
12.690510 88.491 -123.7425
12.782471 88.517 -124.1204
12.875097 88.542 -124.4955
12.968395 88.566 -124.8672
13.062370 88.591 -125.2362
13.157025 88.615 -125.6036
13.252366 88.639 -125.9696
13.348398 88.662 -126.3334
13.445127 88.686 -126.6958
13.542556 88.709 -127.0581
13.640691 88.732 -127.4203
13.739536 88.755 -127.7819
13.839099 88.777 -128.1434
13.939383 88.799 -128.5055
14.040393 88.821 -128.8680
14.142136 88.842 -129.2308
14.244616 88.863 -129.5936
14.347837 88.884 -129.9563
14.451808 88.904 -130.3193
14.556532 88.923 -130.6819
14.662014 88.942 -131.0438
14.768262 88.960 -131.4050
14.875278 88.978 -131.7654
14.983070 88.996 -132.1249
15.091644 89.014 -132.4835
15.201005 89.031 -132.8409
15.311157 89.047 -133.1977
15.422109 89.064 -133.5541
15.533863 89.080 -133.9099
15.646428 89.096 -134.2653
15.759809 89.112 -134.6207
15.874010 89.128 -134.9763
15.989040 89.143 -135.3318
16.104904 89.158 -135.6869
16.221605 89.173 -136.0420
16.339155 89.187 -136.3967
16.457554 89.201 -136.7501
16.576813 89.214 -137.1017
16.696936 89.227 -137.4519
16.817928 89.240 -137.7994
16.939798 89.253 -138.1436
17.062551 89.265 -138.4845
17.186193 89.278 -138.8223
17.310732 89.290 -139.1563
17.436172 89.303 -139.4866
17.562521 89.315 -139.8144
17.689787 89.328 -140.1398
17.817974 89.342 -140.4628
17.947090 89.356 -140.7852
18.077143 89.370 -141.1074
18.208138 89.384 -141.4292
18.340080 89.399 -141.7521
18.472980 89.413 -142.0762
18.606844 89.428 -142.4010
18.741676 89.442 -142.7263
18.877487 89.456 -143.0527
19.014280 89.469 -143.3784
19.152065 89.483 -143.7028
19.290850 89.495 -144.0260
19.430639 89.507 -144.3463
19.571442 89.519 -144.6633
19.713264 89.530 -144.9772
19.856115 89.541 -145.2872
20.000000 89.552 -145.5933
20.144928 89.563 -145.8965
20.290907 89.574 -146.1967
20.437943 89.585 -146.4944
20.586044 89.595 -146.7910
20.735220 89.606 -147.0860
20.885475 89.616 -147.3802
21.036821 89.626 -147.6741
21.189262 89.636 -147.9670
21.342808 89.645 -148.2588
21.497467 89.653 -148.5493
21.653246 89.661 -148.8376
21.810154 89.669 -149.1235
21.968201 89.676 -149.4066
22.127390 89.682 -149.6864
22.287735 89.689 -149.9633
22.449242 89.695 -150.2376
22.611917 89.701 -150.5092
22.775772 89.707 -150.7797
22.940815 89.712 -151.0487
23.107054 89.718 -151.3174
23.274498 89.723 -151.5860
23.443153 89.729 -151.8544
23.613033 89.733 -152.1229
23.784142 89.738 -152.3908
23.956491 89.742 -152.6577
24.130091 89.746 -152.9235
24.304947 89.749 -153.1873
24.481071 89.753 -153.4493
24.658470 89.756 -153.7095
24.837156 89.759 -153.9681
25.017136 89.763 -154.2260
25.198421 89.766 -154.4832
25.381020 89.770 -154.7410
25.564941 89.773 -154.9991
25.750195 89.777 -155.2580
25.936790 89.780 -155.5173
26.124741 89.783 -155.7764
26.314051 89.786 -156.0348
26.504732 89.789 -156.2911
26.696796 89.791 -156.5452
26.890253 89.794 -156.7961
27.085112 89.797 -157.0443
27.281382 89.800 -157.2898
27.479073 89.803 -157.5338
27.678198 89.806 -157.7771
27.878765 89.810 -158.0212
28.080786 89.814 -158.2667
28.284271 89.818 -158.5141
28.489231 89.822 -158.7637
28.695675 89.825 -159.0140
28.903616 89.828 -159.2645
29.113064 89.830 -159.5127
29.324028 89.831 -159.7575
29.536524 89.831 -159.9971
29.750557 89.832 -160.2311
29.966141 89.832 -160.4591
30.183289 89.832 -160.6829
30.402010 89.833 -160.9037
30.622314 89.835 -161.1235
30.844217 89.836 -161.3447
31.067726 89.838 -161.5679
31.292856 89.839 -161.7940
31.519617 89.839 -162.0217
31.748020 89.839 -162.2498
31.978081 89.838 -162.4753
32.209808 89.836 -162.6971
32.443211 89.833 -162.9131
32.678310 89.831 -163.1239
32.915108 89.829 -163.3297
33.153625 89.827 -163.5334
33.393871 89.826 -163.7368
33.635857 89.826 -163.9418
33.879597 89.825 -164.1501
34.125103 89.825 -164.3616
34.372387 89.824 -164.5760
34.621464 89.823 -164.7917
34.872345 89.821 -165.0078
35.125042 89.819 -165.2229
35.379574 89.816 -165.4362
35.635948 89.813 -165.6471
35.894180 89.810 -165.8549
36.154285 89.806 -166.0588
36.416275 89.803 -166.2584
36.680161 89.800 -166.4537
36.945961 89.797 -166.6453
37.213688 89.795 -166.8353
37.483353 89.794 -167.0263
37.754974 89.793 -167.2198
38.028561 89.791 -167.4175
38.304131 89.790 -167.6185
38.581699 89.788 -167.8206
38.861279 89.784 -168.0213
39.142883 89.781 -168.2180
39.426529 89.776 -168.4096
39.712231 89.772 -168.5973
40.000000 89.769 -168.7830
40.289856 89.765 -168.9688
40.581814 89.761 -169.1562
40.875885 89.757 -169.3445
41.172089 89.752 -169.5320
41.470440 89.747 -169.7165
41.770950 89.741 -169.8969
42.073643 89.736 -170.0735
42.378525 89.731 -170.2488
42.685616 89.726 -170.4250
42.994934 89.721 -170.6035
43.306492 89.716 -170.7834
43.620308 89.711 -170.9630
43.936401 89.705 -171.1392
44.254780 89.699 -171.3110
44.575470 89.694 -171.4800
44.898483 89.689 -171.6497
45.223835 89.685 -171.8234
45.551544 89.680 -172.0020
45.881630 89.675 -172.1829
46.214108 89.668 -172.3611
46.548996 89.661 -172.5321
46.886307 89.655 -172.6956
47.226067 89.649 -172.8564
47.568283 89.643 -173.0211
47.912983 89.638 -173.1916
48.260181 89.630 -173.3622
48.609894 89.621 -173.5228
48.962143 89.612 -173.6666
49.316940 89.606 -173.7987
49.674313 89.602 -173.9360
50.034271 89.600 -174.0964
50.396843 89.595 -174.2828
50.762039 89.584 -174.4754
51.129883 89.569 -174.6404
51.500389 89.552 -174.7534
51.873581 89.541 -174.8231
52.249481 89.541 -174.8925
52.628101 89.548 -175.0137
53.009464 89.554 -175.2099
53.393593 89.551 -175.4558
53.780506 89.536 -175.6930
54.170223 89.516 -175.8711
54.562763 89.498 -175.9833
54.958145 89.488 -176.0692
55.356396 89.486 -176.1809
55.757530 89.486 -176.3440
56.161572 89.480 -176.5410
56.568542 89.468 -176.7328
56.978462 89.453 -176.8923
57.391350 89.440 -177.0220
57.807232 89.430 -177.1428
58.226128 89.422 -177.2706
58.648056 89.414 -177.4073
59.073048 89.406 -177.5485
59.501114 89.398 -177.6942
59.932281 89.390 -177.8487
60.366577 89.379 -178.0100
60.804020 89.366 -178.1653
61.244629 89.351 -178.3006
61.688435 89.337 -178.4128
62.135452 89.326 -178.5143
62.585712 89.318 -178.6238
63.039234 89.312 -178.7538
63.496040 89.305 -178.9041
63.956161 89.295 -179.0644
64.419617 89.282 -179.2201
64.886421 89.268 -179.3606
65.356621 89.253 -179.4838
65.830215 89.240 -179.5945
66.307251 89.229 -179.6989
66.787743 89.218 -179.8016
67.271713 89.210 -179.9086
67.759193 89.201 179.9736
68.250206 89.191 179.8476
68.744774 89.178 179.7282
69.242928 89.165 179.6281
69.744690 89.154 179.5381
70.250084 89.145 179.4346
70.759148 89.135 179.3110
71.271896 89.122 179.1875
71.788361 89.107 179.0815
72.308571 89.095 178.9804
72.832550 89.083 178.8636
73.360321 89.068 178.7411
73.891922 89.052 178.6381
74.427376 89.040 178.5475
74.966705 89.031 178.4325
75.509949 89.019 178.2853
76.057121 89.001 178.1483
76.608261 88.982 178.0558
77.163399 88.969 177.9832
77.722557 88.958 177.8911
78.285767 88.945 177.7891
78.853058 88.932 177.7078
79.424461 88.922 177.6330
80.000000 88.915 177.5230
80.579712 88.902 177.3849
81.163628 88.882 177.2705
81.751770 88.864 177.2013
82.344177 88.851 177.1421
82.940880 88.840 177.0544
83.541901 88.827 176.9455
84.147285 88.811 176.8412
84.757050 88.794 176.7503
85.371231 88.778 176.6667
85.989868 88.762 176.5872
86.612984 88.748 176.5108
87.240616 88.734 176.4303
87.872803 88.720 176.3417
88.509560 88.705 176.2556
89.150940 88.690 176.1802
89.796967 88.675 176.1055
90.447670 88.661 176.0234
91.103088 88.645 175.9465
91.763260 88.630 175.8745
92.428215 88.615 175.7888
93.097992 88.596 175.7059
93.772614 88.577 175.6617
94.452133 88.565 175.6235
95.136566 88.555 175.5330
95.825966 88.537 175.4300
96.520363 88.518 175.3715
97.219788 88.504 175.3152
97.924286 88.488 175.2294
98.633881 88.468 175.1729
99.348625 88.453 175.1454
100.068542 88.442 175.0767
100.793686 88.424 174.9952
101.524078 88.406 174.9508
102.259766 88.393 174.8884
103.000778 88.373 174.8083
103.747162 88.351 174.7813
104.498962 88.338 174.7625
105.256203 88.325 174.6963
106.018929 88.308 174.6317
106.787186 88.291 174.5794
107.561012 88.273 174.5258
108.340446 88.256 174.4867
109.125526 88.240 174.4398
109.916290 88.223 174.3926
110.712791 88.207 174.3561
111.515060 88.192 174.2934
112.323143 88.171 174.2504
113.137085 88.155 174.2347
113.956924 88.139 174.1857
114.782700 88.119 174.1582
115.614464 88.104 174.1451
116.452255 88.087 174.1030
117.296112 88.070 174.0870
118.146095 88.058 174.0363
119.002228 88.036 173.9536
119.864563 88.012 173.9457
120.733154 87.997 173.9393
121.608040 87.982 173.9008
122.489258 87.965 173.8741
123.376869 87.949 173.8384
124.270905 87.929 173.8229
125.171425 87.912 173.8176
126.078468 87.894 173.8023
126.992081 87.875 173.8090
127.912323 87.858 173.7918
128.839233 87.837 173.7744
129.772842 87.821 173.7752
130.713242 87.806 173.7150
131.660431 87.784 173.6742
132.614502 87.766 173.6648
133.575485 87.749 173.6508
134.543427 87.735 173.6547
135.518387 87.720 173.6269
136.500412 87.699 173.6368
137.489548 87.682 173.6469
138.485855 87.659 173.6619
139.489380 87.642 173.7060
140.500168 87.626 173.6837
141.518295 87.603 173.6788
142.543793 87.584 173.6927
143.576721 87.569 173.7041
144.617142 87.556 173.6959
145.665100 87.538 173.6718
146.720642 87.519 173.6973
147.783844 87.505 173.7155
148.854752 87.486 173.7116
149.933411 87.466 173.7467
151.019897 87.449 173.7573
152.114243 87.428 173.7860
153.216522 87.413 173.8248
154.326797 87.397 173.8191
155.445114 87.376 173.8722
156.571533 87.366 173.8926
157.706116 87.334 173.9402
158.848923 87.342 174.1028
160.000000 87.332 173.8742
161.159424 87.289 173.9579
162.327255 87.284 173.9631
163.503540 87.251 173.9854
164.688354 87.244 174.0663
165.881760 87.225 174.0425
167.083801 87.205 174.0802
168.294571 87.183 174.1176
169.514099 87.173 174.1898
170.742462 87.155 174.1412
171.979736 87.133 174.2465
173.225967 87.123 174.2447
174.481232 87.093 174.3091
175.745605 87.080 174.3732
177.019119 87.054 174.3849
178.301880 87.045 174.4094
179.593933 87.021 174.3730
180.895340 87.025 174.4324
182.206177 87.017 174.4420
183.526520 87.016 174.4291
184.856430 86.988 174.6001
186.195984 86.963 174.7172
187.545227 86.960 174.9706
188.904266 86.922 174.9011
190.273132 86.904 175.0365
191.651932 86.885 175.1671
193.040726 86.865 175.1320
194.439575 86.877 175.3393
195.848572 86.827 175.2311
197.267761 86.846 175.3813
198.697250 86.797 175.2602
200.137085 86.778 175.2423
201.587372 86.745 175.4162
203.048157 86.731 175.4230
204.519531 86.722 175.6396
206.001556 86.713 175.7058
207.494324 86.716 175.7182
208.997925 86.689 175.7128
210.512405 86.651 175.7642
212.037857 86.637 176.0183
213.574371 86.622 176.1541
215.122025 86.619 176.2317
216.680893 86.604 176.3267
218.251053 86.589 176.3416
219.832581 86.582 176.3949
221.425583 86.561 176.4265
223.030121 86.518 176.6233
224.646286 86.482 176.8384
226.274170 86.514 177.5899
227.913849 86.527 177.0988
229.565399 86.474 176.8766
231.228928 86.396 177.1581
232.904510 86.390 177.4756
234.592224 86.462 177.5791
236.292191 86.431 177.1285
238.004456 86.338 177.6286
239.729126 86.367 178.0575
241.466309 86.387 178.2581
243.216080 86.362 178.1256
244.978516 86.344 178.3827
246.753738 86.342 178.6274
248.541809 86.333 178.6801
250.342850 86.347 178.7979
252.156937 86.338 179.0031
253.984161 86.322 179.1895
255.824646 86.317 179.2390
257.678467 86.337 179.3965
259.545685 86.315 179.7015
261.426483 86.336 179.7866
263.320862 86.333 179.8693
265.229004 86.328 179.8304
267.150970 86.323 179.8639
269.086853 86.357 -179.8164
271.036774 86.301 -179.7503
273.000824 86.326 -179.9420
274.979095 86.317 -179.4589
276.971710 86.291 -179.6274
278.978760 86.306 -179.5522
281.000336 86.302 -179.4871
283.036591 86.300 -179.1817
285.087585 86.266 -179.4542
287.153442 86.310 -178.9234
289.234283 86.256 -179.2974
291.330200 86.281 -178.7941
293.441284 86.263 -179.0542
295.567688 86.240 -178.7009
297.709503 86.262 -178.7163
299.866821 86.233 -178.6586
302.039795 86.237 -178.3926
304.228485 86.224 -178.4223
306.433044 86.214 -178.2581
308.653595 86.212 -178.1998
310.890228 86.201 -177.9937
313.143066 86.188 -177.8817
315.412231 86.189 -177.7849
317.697845 86.183 -177.6769
320.000000 86.181 -177.5797
322.318848 86.151 -177.4372
324.654510 86.151 -177.3372
327.007080 86.166 -177.2705
329.376709 86.154 -177.0154
331.763519 86.127 -176.9124
334.167603 86.126 -176.8225
336.589142 86.124 -176.7354
339.028198 86.129 -176.5629
341.484924 86.108 -176.3150
343.959473 86.100 -176.3253
346.451935 86.115 -176.1614
348.962463 86.096 -175.9827
351.491211 86.097 -175.7996
354.038239 86.081 -175.7100
356.603760 86.085 -175.5853
359.187866 86.087 -175.4484
361.790680 86.071 -175.2575
364.412354 86.079 -175.1306
367.053040 86.065 -175.0864
369.712860 86.054 -174.8041
372.391968 86.089 -174.7036
375.090454 86.050 -174.6156
377.808533 86.056 -174.3307
380.546265 86.058 -174.1269
383.303864 86.071 -174.0852
386.081451 86.058 -174.0145
388.879150 86.037 -173.7628
391.697144 86.075 -173.4019
394.535522 86.080 -173.3963
397.394501 86.062 -173.3603
400.274170 86.052 -173.1220
403.174744 86.055 -172.9373
406.096313 86.047 -172.7381
409.039062 86.055 -172.6680
412.003113 86.064 -172.4439
414.988647 86.060 -172.3555
417.995850 86.073 -172.2039
421.024811 86.062 -172.0974
424.075714 86.032 -171.9963
427.148743 86.042 -171.6973
430.244049 86.042 -171.6062
433.361786 86.036 -171.3741
436.502106 86.035 -171.0965
439.665161 86.048 -170.9461
442.851166 86.037 -170.8588
446.060242 86.036 -170.5165
449.292572 86.069 -170.3924
452.548340 86.075 -170.3327
455.827698 86.072 -170.2418
459.130798 86.056 -169.9242
462.457855 86.068 -169.7077
465.809021 86.065 -169.5111
469.184448 86.074 -169.2892
472.584381 86.082 -169.1767
476.008911 86.095 -168.9654
479.458252 86.105 -168.7959
482.932617 86.106 -168.6102
486.432159 86.126 -168.2905
489.957031 86.129 -168.1503
493.507477 86.127 -167.9261
497.083618 86.136 -167.6721
500.685699 86.142 -167.5007
504.313873 86.166 -167.1994
507.968323 86.176 -167.0730
511.649292 86.191 -166.6689
515.356934 86.228 -166.6566
519.091370 86.250 -166.5096
522.852966 86.298 -166.3706
526.641724 86.330 -166.4317
530.458008 86.350 -166.5029
534.301941 86.349 -166.5599
538.173706 86.341 -166.5966
542.073547 86.317 -166.5372
546.001648 86.303 -166.3123
549.958191 86.297 -166.2088
553.943420 86.277 -166.0576
557.957520 86.282 -165.8024
562.000671 86.278 -165.6090
566.073181 86.277 -165.3492
570.175171 86.283 -165.1588
574.306885 86.278 -164.9776
578.468567 86.292 -164.5409
582.660400 86.302 -164.4736
586.882568 86.310 -164.2449
591.135376 86.315 -163.9465
595.419006 86.330 -163.7999
599.733643 86.338 -163.5468
604.079590 86.343 -163.3740
608.456970 86.361 -163.1070
612.866089 86.377 -162.8763
617.307190 86.382 -162.6337
621.780457 86.399 -162.3830
626.286133 86.413 -162.1031
630.824463 86.424 -161.8653
635.395691 86.443 -161.6050
640.000000 86.465 -161.2862
644.637695 86.496 -161.0152
649.309021 86.526 -160.7250
654.014160 86.556 -160.5002
658.753418 86.594 -160.2158
663.527039 86.631 -160.1389
668.335205 86.667 -160.0124
673.178284 86.709 -159.8966
678.056396 86.718 -159.7974
682.969849 86.742 -159.7020
687.918945 86.764 -159.5720
692.903870 86.774 -159.4176
697.924927 86.794 -159.3093
702.982422 86.818 -159.1333
708.076477 86.831 -158.9301
713.207520 86.850 -158.7312
718.375732 86.871 -158.5444
723.581360 86.883 -158.3859
728.824707 86.913 -158.1269
734.106079 86.936 -157.9651
739.425720 86.949 -157.8034
744.783936 86.975 -157.5306
750.180908 87.007 -157.4035
755.617065 87.026 -157.1746
761.092529 87.052 -156.9221
766.607727 87.075 -156.7974
772.162903 87.106 -156.5691
777.758301 87.131 -156.3813
783.394287 87.162 -156.2240
789.071045 87.188 -155.9704
794.789001 87.217 -155.8150
800.548340 87.249 -155.6020
806.349487 87.274 -155.4185
812.192627 87.312 -155.2043
818.078125 87.342 -155.0564
824.006226 87.369 -154.7906
829.977295 87.417 -154.7142
835.991699 87.442 -154.4627
842.049622 87.477 -154.2807
848.151428 87.526 -154.0918
854.297485 87.541 -153.9589
860.488098 87.593 -153.7422
866.723572 87.626 -153.5697
873.004211 87.667 -153.4882
879.330322 87.705 -153.2061
885.702332 87.755 -153.0799
892.120483 87.792 -152.8947
898.585144 87.833 -152.7923
905.096680 87.874 -152.6180
911.655396 87.918 -152.4508
918.261597 87.965 -152.2844
924.915710 88.011 -152.2094
931.618042 88.056 -152.0634
938.368896 88.102 -151.9369
945.168762 88.149 -151.8071
952.017822 88.198 -151.7003
958.916504 88.253 -151.6228
965.865234 88.299 -151.5359
972.864319 88.342 -151.4165
979.914062 88.392 -151.2832
987.014954 88.437 -151.1876
994.167236 88.487 -151.1530
1001.371399 88.538 -151.0569
1008.627747 88.580 -150.9400
1015.936646 88.633 -150.8996
1023.298584 88.687 -150.8677
1030.713867 88.733 -150.8178
1038.182739 88.784 -150.7659
1045.705933 88.834 -150.7207
1053.283447 88.887 -150.7304
1060.916016 88.934 -150.6886
1068.603882 88.985 -150.6750
1076.347412 89.032 -150.6734
1084.147095 89.087 -150.6854
1092.003296 89.135 -150.6945
1099.916382 89.188 -150.7019
1107.886841 89.239 -150.7526
1115.915039 89.281 -150.7260
1124.001343 89.335 -150.8034
1132.146362 89.386 -150.8287
1140.350342 89.434 -150.8869
1148.613770 89.482 -150.9059
1156.937134 89.529 -150.9915
1165.320801 89.576 -151.0535
1173.765137 89.629 -151.1283
1182.270752 89.668 -151.2092
1190.838013 89.716 -151.2939
1199.467285 89.762 -151.4258
1208.159180 89.803 -151.4374
1216.913940 89.847 -151.6274
1225.732178 89.884 -151.6630
1234.614380 89.938 -151.8041
1243.560913 89.970 -151.9207
1252.572266 90.010 -151.9520
1261.648926 90.053 -152.1139
1270.791382 90.090 -152.2462
1280.000000 90.133 -152.3486
1289.275391 90.174 -152.5009
1298.618042 90.211 -152.6149
1308.028320 90.246 -152.7590
1317.506836 90.286 -152.8952
1327.054077 90.316 -153.0337
1336.670410 90.352 -153.1594
1346.356567 90.388 -153.3086
1356.112793 90.417 -153.4765
1365.939697 90.450 -153.6075
1375.837891 90.482 -153.7263
1385.807739 90.516 -153.9060
1395.849854 90.541 -154.0674
1405.964844 90.570 -154.1799
1416.152954 90.601 -154.3718
1426.415039 90.626 -154.5192
1436.751465 90.653 -154.6780
1447.162720 90.676 -154.8281
1457.649414 90.703 -154.9705
1468.212158 90.726 -155.1268
1478.851440 90.751 -155.2672
1489.567871 90.771 -155.4226
1500.361816 90.792 -155.5738
1511.234131 90.815 -155.7199
1522.185059 90.834 -155.8849
1533.215454 90.854 -156.0217
1544.325806 90.875 -156.1694
1555.516602 90.892 -156.3135
1566.788574 90.911 -156.4519
1578.142090 90.927 -156.5919
1589.578003 90.944 -156.7270
1601.096680 90.959 -156.8615
1612.698975 90.975 -156.9913
1624.385254 90.989 -157.1289
1636.156250 91.001 -157.2538
1648.012451 91.015 -157.3758
1659.954590 91.027 -157.5011
1671.983398 91.040 -157.6111
1684.099243 91.051 -157.7287
1696.302856 91.062 -157.8331
1708.594971 91.073 -157.9417
1720.976196 91.083 -158.0476
1733.447144 91.094 -158.1498
1746.008423 91.104 -158.2449
1758.660645 91.114 -158.3335
1771.404663 91.124 -158.4354
1784.240967 91.133 -158.5060
1797.170288 91.143 -158.5901
1810.193359 91.154 -158.6708
1823.310791 91.159 -158.7404
1836.523193 91.168 -158.8056
1849.831421 91.177 -158.8843
1863.236084 91.186 -158.9350
1876.737793 91.192 -158.9999
1890.337524 91.202 -159.0473
1904.035645 91.210 -159.0881
1917.833008 91.218 -159.1310
1931.730469 91.227 -159.1767
1945.728638 91.235 -159.2101
1959.828125 91.243 -159.2513
1974.029907 91.251 -159.2689
1988.334473 91.263 -159.2979
2002.742798 91.273 -159.3103
2017.255493 91.281 -159.3463
2031.873291 91.293 -159.3522
2046.597168 91.302 -159.3569
2061.427734 91.316 -159.3562
2076.365479 91.324 -159.3603
2091.411865 91.336 -159.3691
2106.566895 91.348 -159.3590
2121.832031 91.361 -159.3612
2137.207764 91.376 -159.3475
2152.694824 91.388 -159.3309
2168.294189 91.400 -159.3131
2184.006592 91.413 -159.2974
2199.832764 91.429 -159.2720
2215.773682 91.445 -159.2476
2231.830078 91.461 -159.2254
2248.002686 91.479 -159.1914
2264.292725 91.496 -159.1527
2280.700684 91.514 -159.1367
2297.227539 91.532 -159.0935
2313.874268 91.552 -159.0546
2330.641602 91.573 -159.0212
2347.530273 91.594 -158.9920
2364.541504 91.616 -158.9415
2381.676025 91.638 -158.8988
2398.934570 91.661 -158.8506
2416.318359 91.686 -158.7874
2433.827881 91.711 -158.7555
2451.464355 91.738 -158.7127
2469.228760 91.764 -158.6606
2487.121826 91.793 -158.5976
2505.144531 91.822 -158.5660
2523.297852 91.855 -158.5184
2541.582764 91.888 -158.4728
2560.000000 91.922 -158.4325
2578.550781 91.954 -158.4059
2597.236084 91.991 -158.3780
2616.056641 92.027 -158.3536
2635.013672 92.064 -158.3373
2654.108154 92.100 -158.3160
2673.340820 92.140 -158.3009
2692.713135 92.180 -158.2849
2712.225586 92.220 -158.2701
2731.879395 92.262 -158.2745
2751.675781 92.306 -158.2790
2771.615479 92.350 -158.2998
2791.699707 92.396 -158.2849
2811.929688 92.442 -158.3181
2832.305908 92.489 -158.3655
2852.830078 92.539 -158.4111
2873.502930 92.588 -158.4602
2894.325439 92.638 -158.5240
2915.298828 92.688 -158.5870
2936.424316 92.739 -158.6715
2957.702881 92.789 -158.7518
2979.135742 92.839 -158.8519
3000.723633 92.895 -158.9483
3022.468262 92.948 -159.0585
3044.370117 93.000 -159.1843
3066.430908 93.055 -159.3240
3088.651611 93.110 -159.4581
3111.033203 93.167 -159.6049
3133.577148 93.224 -159.7770
3156.284180 93.280 -159.9473
3179.156006 93.339 -160.1354
3202.193359 93.397 -160.3359
3225.397949 93.454 -160.5471
3248.770508 93.514 -160.7740
3272.312500 93.573 -161.0108
3296.024902 93.634 -161.2613
3319.909180 93.693 -161.5385
3343.966797 93.753 -161.8148
3368.198486 93.814 -162.1160
3392.605713 93.875 -162.4149
3417.189941 93.937 -162.7553
3441.952393 93.996 -163.1069
3466.894287 94.060 -163.4670
3492.016846 94.120 -163.8495
3517.321289 94.183 -164.2631
3542.809326 94.242 -164.6883
3568.481934 94.305 -165.1474
3594.340576 94.368 -165.6110
3620.386719 94.427 -166.1152
3646.621582 94.487 -166.6443
3673.046387 94.544 -167.1976
3699.662842 94.601 -167.7714
3726.472168 94.656 -168.3860
3753.475586 94.707 -169.0085
3780.675049 94.760 -169.6597
3808.071289 94.808 -170.3568
3835.666016 94.853 -171.0633
3863.460938 94.895 -171.8058
3891.457275 94.935 -172.5712
3919.656250 94.970 -173.3588
3948.059814 95.002 -174.1793
3976.668945 95.028 -175.0237
4005.485596 95.050 -175.8893
4034.510986 95.068 -176.7831
4063.746582 95.080 -177.6843
4093.194336 95.088 -178.6097
4122.855469 95.090 -179.5623
4152.730957 95.087 179.4850
4182.823730 95.075 178.4728
4213.133789 95.057 177.4675
4243.664062 95.031 176.4432
4274.415527 95.000 175.4214
4305.389648 94.958 174.3885
4336.588379 94.908 173.3464
4368.013184 94.850 172.3149
4399.665527 94.783 171.2963
4431.547363 94.708 170.2784
4463.660156 94.626 169.2781
4496.005371 94.533 168.2865
4528.585449 94.436 167.3406
4561.401367 94.326 166.3889
4594.455078 94.213 165.4763
4627.748535 94.089 164.6027
4661.283203 93.960 163.7570
4695.060547 93.825 162.9537
4729.083008 93.683 162.1964
4763.352051 93.535 161.4480
4797.869141 93.381 160.7775
4832.636719 93.222 160.1529
4867.655762 93.061 159.5535
4902.928711 92.896 159.0287
4938.457520 92.722 158.5330
4974.243652 92.549 158.1100
5010.289062 92.372 157.7028
5046.595703 92.191 157.3587
5083.165527 92.009 157.0847
5120.000000 91.825 156.8588
5157.101562 91.642 156.6946
5194.472168 91.457 156.5808
5232.113281 91.271 156.5497
5270.027344 91.087 156.5220
5308.216309 90.901 156.5779
5346.681641 90.720 156.6991
5385.426270 90.540 156.8687
5424.451172 90.360 157.0807
5463.758789 90.185 157.3618
5503.351562 90.014 157.6732
5543.230957 89.843 158.0583
5583.399414 89.677 158.4691
5623.859375 89.521 158.9631
5664.611816 89.367 159.4858
5705.660156 89.219 160.0745
5747.005859 89.078 160.6938
5788.650879 88.944 161.3560
5830.597656 88.825 162.0447
5872.848633 88.713 162.7249
5915.405762 88.610 163.4072
5958.271484 88.507 164.0968
6001.447266 88.411 164.7480
6044.936523 88.316 165.4177
6088.740234 88.226 166.0934
6132.861816 88.133 166.7762
6177.303223 88.050 167.4932
6222.066406 87.963 168.2182
6267.154297 87.878 168.9525
6312.568359 87.791 169.7783
6358.312012 87.723 170.7047
6404.386719 87.657 171.6407
6450.795898 87.619 172.5486
6497.541016 87.585 173.4543
6544.625000 87.554 174.3484
6592.049805 87.535 175.2772
6639.818359 87.526 176.1969
6687.933594 87.523 177.0481
6736.396973 87.532 177.9686
6785.211426 87.550 178.8144
6834.379883 87.576 179.7184
6883.904785 87.616 -179.4249
6933.788574 87.668 -178.5872
6984.033691 87.732 -177.7226
7034.642578 87.818 -176.9375
7085.618652 87.915 -176.2841
7136.963867 88.026 -175.6526
7188.681152 88.154 -175.1756
7240.773438 88.284 -174.7581
7293.243164 88.419 -174.5021
7346.092773 88.556 -174.2507
7399.325684 88.715 -174.0742
7452.944336 88.884 -174.0578
7506.951172 89.059 -174.1904
7561.350098 89.249 -174.5486
7616.142578 89.437 -175.0865
7671.332031 89.619 -175.8814
7726.921875 89.800 -176.8818
7782.914551 89.966 -178.1670
7839.312500 90.104 -179.6333
7896.119629 90.222 178.6651
7953.337891 90.307 176.6924
8010.971191 90.335 174.5918
8069.021973 90.313 172.3683
8127.493164 90.237 170.2236
8186.388672 90.122 168.1083
8245.710938 89.970 166.0644
8305.461914 89.772 164.1455
8365.647461 89.547 162.2951
8426.267578 89.282 160.6177
8487.328125 88.988 159.2041
8548.831055 88.668 157.9820
8610.779297 88.339 157.0097
8673.176758 87.991 156.2993
8736.026367 87.643 155.8489
8799.331055 87.302 155.6264
8863.094727 86.957 155.5743
8927.320312 86.632 155.8094
8992.010742 86.322 156.1575
9057.170898 86.020 156.7222
9122.802734 85.734 157.3087
9188.910156 85.479 158.0545
9255.497070 85.234 158.8604
9322.566406 85.007 159.6971
9390.121094 84.793 160.6678
9458.166016 84.600 161.6645
9526.704102 84.435 162.6354
9595.738281 84.270 163.5742
9665.273438 84.134 164.6365
9735.311523 84.012 165.6580
9805.857422 83.906 166.5891
9876.915039 83.798 167.5986
9948.487305 83.708 168.4394
10020.578125 83.646 169.1553
10093.191406 83.574 169.9061
10166.331055 83.515 170.5427
10240.000000 83.469 171.0804
10314.203125 83.421 171.5549
10388.944336 83.379 171.9226
10464.226562 83.337 172.2980
10540.054688 83.291 172.4437
10616.432617 83.240 172.4792
10693.363281 83.194 172.4970
10770.852539 83.130 172.3966
10848.902344 83.071 172.1840
10927.517578 82.997 171.9303
11006.703125 82.897 171.5529
11086.461914 82.795 171.1469
11166.798828 82.681 170.7070
11247.718750 82.537 170.1730
11329.223633 82.354 169.6077
11411.320312 82.187 169.0567
11494.011719 81.994 168.5203
11577.301758 81.776 167.9678
11661.195312 81.555 167.4530
11745.697266 81.293 167.0065
11830.811523 81.017 166.5845
11916.542969 80.742 166.2879
12002.894531 80.445 165.8828
12089.873047 80.130 165.7469
12177.480469 79.787 165.4904
12265.723633 79.472 165.5097
12354.606445 79.124 165.5655
12444.132812 78.779 165.6647
12534.308594 78.414 165.8432
12625.136719 78.036 166.2069
12716.624023 77.647 166.4359
12808.773438 77.306 167.1483
12901.591797 76.895 167.6729
12995.082031 76.499 168.3798
13089.250000 76.112 169.0443
13184.099609 75.691 169.9342
13279.636719 75.331 171.0049
13375.867188 74.890 172.1093
13472.793945 74.464 173.2580
13570.422852 74.056 174.5371
13668.759766 73.654 175.9936
13767.809570 73.285 177.4479
13867.577148 72.888 179.2290
13968.067383 72.458 -178.7660
14069.285156 72.088 -176.8474
14171.237305 71.690 -174.6843
14273.927734 71.391 -172.5870
14377.362305 71.026 -170.3694
14481.546875 70.694 -167.9157
14586.486328 70.361 -165.3698
14692.185547 70.068 -162.9312
14798.651367 69.805 -160.2512
14905.888672 69.558 -157.6248
15013.902344 69.335 -154.3873
15122.700195 69.112 -151.8649
15232.285156 68.966 -148.8710
15342.664062 68.787 -145.9313
15453.843750 68.629 -143.0033
15565.829102 68.554 -140.0719
15678.625000 68.484 -137.3972
15792.239258 68.345 -134.6271
15906.675781 68.305 -131.8184
16021.942383 68.349 -129.3910
16138.043945 68.405 -125.8510
16254.986328 68.375 -123.1505
16372.777344 68.403 -120.5082
16491.421875 68.453 -117.5645
16610.923828 68.659 -113.8893
16731.294922 68.812 -112.0592
16852.535156 69.009 -109.6599
16974.656250 69.312 -107.1633
17097.662109 69.656 -105.3359
17221.558594 70.121 -103.7576
17346.353516 70.516 -103.5293
17472.052734 71.016 -103.5890
17598.662109 71.481 -105.3830
17726.189453 71.898 -108.4178
17854.640625 71.991 -112.9667
17984.021484 72.026 -116.9174
18114.341797 71.718 -121.6522
18245.605469 71.169 -126.2943
18377.820312 70.455 -129.7520
18510.994141 69.585 -131.7702
18645.132812 68.632 -132.8437
18780.242188 67.580 -132.2653
18916.332031 66.723 -131.2968
19053.408203 65.780 -128.9207
19191.476562 65.038 -126.1221
19330.546875 64.005 -124.8836
19470.623047 63.400 -122.3062
19611.714844 62.319 -119.3366
19753.830078 61.492 -115.6491
19896.974609 60.575 -111.9139
