* Measurement data measured by REW V5.20.4
* Source: Microphone (BGVP HiFi Audio-T01s), MICROPHONE (Master Volume), R, volume: 0.260
* Format: 256k Log Swept Sine, 1 sweep at -6.0 dBFS with no timing reference
* Dated: 30 May, 2023 12:33:49 AM
* REW Settings:
*  C-weighting compensation: Off
*  Target level: 75.0 dB
* Note: 
* Measurement: HA-FDX1 Blue R
* Smoothing: None
* Frequency Step: 1/96 octave
* Start Frequency: 0.366 Hz
*
* Freq(Hz) SPL(dB) Phase(degrees)
0.366299 39.558 153.7107
0.368954 39.599 153.3013
0.371627 39.641 152.8727
0.374320 39.682 152.4248
0.377033 39.725 151.9576
0.379765 39.767 151.4708
0.382517 39.810 150.9644
0.385289 39.853 150.4382
0.388081 39.896 149.8921
0.390893 39.940 149.3260
0.393725 39.984 148.7398
0.396578 40.029 148.1334
0.399452 40.073 147.5066
0.402347 40.118 146.8595
0.405262 40.164 146.1919
0.408199 40.209 145.5038
0.411157 40.255 144.7950
0.414136 40.302 144.0655
0.417137 40.348 143.3153
0.420160 40.395 142.5444
0.423205 40.443 141.7526
0.426272 40.490 140.9400
0.429361 40.538 140.1065
0.432472 40.587 139.2521
0.435606 40.636 138.3769
0.438762 40.685 137.4809
0.441942 40.734 136.5640
0.445144 40.784 135.6262
0.448370 40.834 134.6678
0.451619 40.885 133.6886
0.454892 40.935 132.6889
0.458188 40.987 131.6685
0.461508 41.038 130.6277
0.464852 41.090 129.5666
0.468221 41.143 128.4853
0.471614 41.196 127.3839
0.475031 41.249 126.2626
0.478474 41.302 125.1215
0.481941 41.356 123.9608
0.485433 41.410 122.7808
0.488951 41.465 121.5816
0.492494 41.520 120.3635
0.496063 41.576 119.1268
0.499658 41.632 117.8717
0.503278 41.688 116.5986
0.506925 41.745 115.3077
0.510599 41.802 113.9993
0.514299 41.859 112.6740
0.518025 41.917 111.3320
0.521779 41.976 109.9737
0.525560 42.034 108.5996
0.529369 42.094 107.2101
0.533205 42.153 105.8058
0.537069 42.213 104.3871
0.540960 42.274 102.9546
0.544880 42.335 101.5088
0.548829 42.396 100.0504
0.552806 42.458 98.5800
0.556812 42.520 97.0982
0.560847 42.583 95.6057
0.564911 42.646 94.1033
0.569004 42.710 92.5917
0.573128 42.774 91.0717
0.577281 42.839 89.5442
0.581464 42.904 88.0100
0.585677 42.969 86.4700
0.589921 43.035 84.9252
0.594196 43.102 83.3766
0.598502 43.169 81.8252
0.602839 43.236 80.2720
0.607207 43.304 78.7183
0.611608 43.373 77.1652
0.616040 43.442 75.6139
0.620504 43.511 74.0656
0.625000 43.581 72.5217
0.629529 43.651 70.9836
0.634091 43.722 69.4526
0.638686 43.794 67.9303
0.643314 43.866 66.4182
0.647976 43.938 64.9179
0.652671 44.011 63.4310
0.657401 44.085 61.9593
0.662164 44.159 60.5046
0.666963 44.233 59.0686
0.671796 44.309 57.6533
0.676664 44.384 56.2607
0.681567 44.461 54.8928
0.686506 44.537 53.5518
0.691481 44.615 52.2399
0.696492 44.693 50.9593
0.701539 44.771 49.7124
0.706622 44.850 48.5017
0.711743 44.930 47.3296
0.716900 45.010 46.1989
0.722095 45.091 45.1121
0.727328 45.172 44.0721
0.732599 45.255 43.0817
0.737907 45.377 42.1298
0.743254 45.502 41.2050
0.748640 45.631 40.3073
0.754065 45.763 39.4364
0.759530 45.900 38.5925
0.765033 46.040 37.7755
0.770577 46.184 36.9851
0.776161 46.332 36.2213
0.781785 46.483 35.4840
0.787451 46.638 34.7729
0.793157 46.797 34.0879
0.798904 46.959 33.4287
0.804694 47.125 32.7951
0.810525 47.294 32.1867
0.816398 47.466 31.6034
0.822314 47.642 31.0447
0.828273 47.821 30.5103
0.834275 48.003 29.9998
0.840320 48.189 29.5127
0.846410 48.377 29.0485
0.852543 48.569 28.6069
0.858721 48.763 28.1871
0.864944 48.960 27.7887
0.871211 49.160 27.4110
0.877525 49.362 27.0534
0.883883 49.567 26.7152
0.890288 49.774 26.3955
0.896740 49.984 26.0937
0.903238 50.195 25.8089
0.909783 50.409 25.5402
0.916376 50.624 25.2867
0.923016 50.841 25.0474
0.929705 51.060 24.8212
0.936442 51.280 24.6072
0.943228 51.501 24.4040
0.950063 51.724 24.2106
0.956947 51.947 24.0257
0.963882 52.171 23.8479
0.970866 52.395 23.6759
0.977902 52.619 23.5082
0.984988 52.844 23.3432
0.992126 53.068 23.1795
0.999315 53.292 23.0153
1.006557 53.515 22.8490
1.013850 53.738 22.6786
1.021197 53.959 22.5024
1.028597 54.179 22.3183
1.036051 54.397 22.1244
1.043558 54.613 21.9184
1.051121 54.826 21.6981
1.058737 55.037 21.4613
1.066409 55.245 21.2056
1.074137 55.449 20.9283
1.081921 55.650 20.6270
1.089761 55.847 20.2989
1.097658 56.039 19.9412
1.105612 56.227 19.5669
1.113623 56.414 19.1996
1.121693 56.600 18.8396
1.129821 56.784 18.4867
1.138009 56.966 18.1407
1.146255 57.147 17.8016
1.154561 57.326 17.4692
1.162928 57.504 17.1432
1.171355 57.680 16.8236
1.179843 57.855 16.5100
1.188393 58.028 16.2022
1.197004 58.201 15.9002
1.205678 58.371 15.6034
1.214415 58.541 15.3119
1.223215 58.709 15.0252
1.232079 58.876 14.7430
1.241007 59.043 14.4651
1.250000 59.207 14.1911
1.259058 59.371 13.9207
1.268182 59.534 13.6536
1.277371 59.697 13.3893
1.286628 59.858 13.1275
1.295951 60.018 12.8677
1.305342 60.178 12.6095
1.314801 60.338 12.3524
1.324329 60.496 12.0960
1.333925 60.655 11.8398
1.343592 60.813 11.5833
1.353328 60.971 11.3258
1.363135 61.128 11.0669
1.373013 61.286 10.8059
1.382962 61.444 10.5422
1.392983 61.602 10.2751
1.403078 61.761 10.0041
1.413245 61.920 9.7283
1.423486 62.079 9.4470
1.433801 62.239 9.1596
1.444191 62.401 8.8651
1.454656 62.563 8.5628
1.465197 62.727 8.2518
1.475815 62.890 7.9362
1.486509 63.053 7.6202
1.497281 63.214 7.3037
1.508131 63.375 6.9866
1.519059 63.534 6.6690
1.530067 63.693 6.3507
1.541154 63.851 6.0318
1.552322 64.007 5.7122
1.563571 64.163 5.3918
1.574901 64.318 5.0706
1.586314 64.472 4.7485
1.597809 64.625 4.4255
1.609387 64.778 4.1015
1.621049 64.930 3.7765
1.632796 65.081 3.4503
1.644628 65.231 3.1230
1.656546 65.381 2.7944
1.668550 65.531 2.4644
1.680641 65.679 2.1331
1.692819 65.828 1.8002
1.705086 65.976 1.4658
1.717442 66.124 1.1296
1.729887 66.271 0.7917
1.742423 66.418 0.4520
1.755049 66.565 0.1103
1.767767 66.713 -0.2335
1.780577 66.860 -0.5795
1.793480 67.007 -0.9278
1.806476 67.155 -1.2784
1.819566 67.302 -1.6317
1.832752 67.450 -1.9876
1.846033 67.598 -2.3457
1.859410 67.745 -2.7056
1.872884 67.891 -3.0675
1.886456 68.036 -3.4312
1.900126 68.180 -3.7967
1.913895 68.323 -4.1641
1.927764 68.465 -4.5332
1.941733 68.606 -4.9042
1.955804 68.747 -5.2769
1.969976 68.887 -5.6513
1.984251 69.026 -6.0275
1.998630 69.164 -6.4054
2.013113 69.302 -6.7850
2.027701 69.439 -7.1663
2.042394 69.576 -7.5491
2.057194 69.712 -7.9336
2.072102 69.848 -8.3197
2.087117 69.983 -8.7073
2.102241 70.118 -9.0965
2.117475 70.252 -9.4871
2.132819 70.387 -9.8792
2.148274 70.521 -10.2727
2.163841 70.655 -10.6676
2.179522 70.789 -11.0639
2.195315 70.923 -11.4615
2.211223 71.057 -11.8605
2.227247 71.189 -12.2613
2.243386 71.321 -12.6637
2.259643 71.452 -13.0677
2.276017 71.582 -13.4733
2.292510 71.711 -13.8805
2.309123 71.839 -14.2891
2.325855 71.966 -14.6991
2.342710 72.092 -15.1106
2.359686 72.218 -15.5234
2.376785 72.343 -15.9374
2.394008 72.467 -16.3526
2.411356 72.591 -16.7690
2.428830 72.714 -17.1865
2.446430 72.837 -17.6050
2.464158 72.959 -18.0245
2.482014 73.081 -18.4449
2.500000 73.202 -18.8660
2.518116 73.324 -19.2879
2.536363 73.445 -19.7104
2.554743 73.566 -20.1335
2.573256 73.687 -20.5571
2.591902 73.807 -20.9815
2.610684 73.926 -21.4065
2.629603 74.044 -21.8323
2.648658 74.161 -22.2588
2.667851 74.277 -22.6859
2.687183 74.392 -23.1137
2.706656 74.507 -23.5420
2.726269 74.620 -23.9710
2.746025 74.734 -24.4005
2.765924 74.846 -24.8305
2.785967 74.958 -25.2610
2.806155 75.069 -25.6920
2.826490 75.180 -26.1234
2.846972 75.291 -26.5552
2.867602 75.401 -26.9874
2.888382 75.511 -27.4200
2.909312 75.621 -27.8528
2.930394 75.731 -28.2859
2.951629 75.841 -28.7190
2.973018 75.949 -29.1517
2.994561 76.057 -29.5841
3.016261 76.164 -30.0164
3.038118 76.270 -30.4484
3.060134 76.375 -30.8804
3.082309 76.480 -31.3123
3.104645 76.584 -31.7443
3.127142 76.687 -32.1765
3.149803 76.790 -32.6088
3.172627 76.893 -33.0415
3.195618 76.995 -33.4746
3.218774 77.097 -33.9082
3.242099 77.198 -34.3424
3.265593 77.300 -34.7772
3.289256 77.402 -35.2130
3.313092 77.503 -35.6491
3.337100 77.604 -36.0846
3.361282 77.704 -36.5195
3.385639 77.803 -36.9539
3.410173 77.902 -37.3881
3.434884 78.000 -37.8222
3.459775 78.098 -38.2564
3.484846 78.195 -38.6909
3.510098 78.292 -39.1260
3.535534 78.388 -39.5618
3.561154 78.484 -39.9986
3.586959 78.580 -40.4367
3.612952 78.676 -40.8763
3.639133 78.771 -41.3177
3.665504 78.867 -41.7611
3.692065 78.962 -42.2053
3.718820 79.057 -42.6496
3.745768 79.151 -43.0942
3.772911 79.245 -43.5394
3.800251 79.338 -43.9852
3.827789 79.431 -44.4320
3.855527 79.523 -44.8799
3.883466 79.615 -45.3293
3.911607 79.707 -45.7804
3.939952 79.798 -46.2334
3.968503 79.889 -46.6887
3.997260 79.979 -47.1466
4.026226 80.070 -47.6073
4.055401 80.160 -48.0704
4.084789 80.249 -48.5351
4.114388 80.338 -49.0015
4.144203 80.427 -49.4697
4.174234 80.515 -49.9397
4.204482 80.602 -50.4117
4.234950 80.689 -50.8857
4.265638 80.776 -51.3618
4.296548 80.862 -51.8401
4.327683 80.947 -52.3208
4.359043 81.032 -52.8039
4.390630 81.116 -53.2895
4.422447 81.200 -53.7778
4.454494 81.283 -54.2688
4.486773 81.366 -54.7624
4.519286 81.448 -55.2583
4.552034 81.529 -55.7565
4.585020 81.609 -56.2567
4.618245 81.689 -56.7588
4.651711 81.768 -57.2626
4.685419 81.846 -57.7678
4.719372 81.924 -58.2743
4.753570 82.001 -58.7819
4.788016 82.077 -59.2909
4.822712 82.153 -59.8022
4.857660 82.227 -60.3154
4.892860 82.301 -60.8303
4.928316 82.373 -61.3466
4.964029 82.445 -61.8638
5.000000 82.516 -62.3815
5.036232 82.587 -62.8994
5.072727 82.657 -63.4171
5.109486 82.726 -63.9341
5.146511 82.795 -64.4502
5.183805 82.862 -64.9666
5.221369 82.929 -65.4831
5.259205 82.994 -65.9996
5.297316 83.059 -66.5158
5.335702 83.123 -67.0314
5.374367 83.186 -67.5460
5.413311 83.249 -68.0594
5.452538 83.312 -68.5712
5.492050 83.374 -69.0812
5.531847 83.435 -69.5891
5.571934 83.496 -70.0950
5.612310 83.556 -70.5992
5.652979 83.615 -71.1015
5.693943 83.674 -71.6023
5.735204 83.732 -72.1015
5.776763 83.790 -72.5992
5.818624 83.848 -73.0957
5.860788 83.906 -73.5911
5.903258 83.964 -74.0842
5.946035 84.021 -74.5745
5.989123 84.078 -75.0623
6.032523 84.135 -75.5484
6.076237 84.191 -76.0332
6.120268 84.247 -76.5174
6.164618 84.304 -77.0015
6.209289 84.360 -77.4863
6.254284 84.417 -77.9716
6.299605 84.473 -78.4552
6.345255 84.529 -78.9375
6.391235 84.586 -79.4192
6.437549 84.642 -79.9010
6.484198 84.698 -80.3836
6.531185 84.754 -80.8677
6.578513 84.810 -81.3541
6.626183 84.867 -81.8429
6.674199 84.923 -82.3326
6.722563 84.979 -82.8231
6.771278 85.035 -83.3149
6.820345 85.091 -83.8083
6.869768 85.147 -84.3036
6.919549 85.202 -84.8010
6.969691 85.257 -85.3010
7.020196 85.312 -85.8036
7.071068 85.367 -86.3084
7.122308 85.421 -86.8153
7.173919 85.475 -87.3238
7.225904 85.529 -87.8337
7.278266 85.582 -88.3446
7.331007 85.635 -88.8560
7.384131 85.687 -89.3690
7.437639 85.739 -89.8837
7.491535 85.790 -90.3995
7.545822 85.840 -90.9158
7.600502 85.891 -91.4319
7.655579 85.941 -91.9471
7.711054 85.990 -92.4609
7.766932 86.039 -92.9740
7.823214 86.087 -93.4867
7.879904 86.135 -93.9986
7.937005 86.182 -94.5093
7.994520 86.229 -95.0184
8.052452 86.276 -95.5257
8.110803 86.323 -96.0306
8.169578 86.369 -96.5334
8.228777 86.415 -97.0341
8.288406 86.461 -97.5333
8.348468 86.507 -98.0312
8.408964 86.552 -98.5280
8.469899 86.598 -99.0237
8.531276 86.643 -99.5171
8.593097 86.688 -100.0087
8.655366 86.734 -100.4993
8.718086 86.779 -100.9895
8.781260 86.823 -101.4799
8.844893 86.868 -101.9706
8.908987 86.913 -102.4606
8.973545 86.957 -102.9500
9.038571 87.001 -103.4391
9.104069 87.045 -103.9281
9.170040 87.089 -104.4171
9.236490 87.132 -104.9066
9.303422 87.174 -105.3961
9.370838 87.216 -105.8850
9.438744 87.258 -106.3725
9.507140 87.299 -106.8579
9.576033 87.339 -107.3413
9.645425 87.379 -107.8237
9.715320 87.418 -108.3040
9.785721 87.456 -108.7812
9.856632 87.494 -109.2541
9.928058 87.531 -109.7220
10.000000 87.568 -110.1855
10.072464 87.604 -110.6447
10.145453 87.639 -111.0992
10.218971 87.675 -111.5486
10.293022 87.710 -111.9925
10.367610 87.745 -112.4298
10.442738 87.780 -112.8615
10.518411 87.814 -113.2888
10.594631 87.849 -113.7129
10.671404 87.885 -114.1340
10.748734 87.920 -114.5497
10.826623 87.955 -114.9617
10.905077 87.991 -115.3721
10.984100 88.026 -115.7831
11.063695 88.062 -116.1943
11.143867 88.098 -116.6041
11.224621 88.134 -117.0137
11.305959 88.170 -117.4244
11.387886 88.205 -117.8374
11.470407 88.240 -118.2525
11.553527 88.275 -118.6687
11.637249 88.308 -119.0852
11.721577 88.341 -119.5010
11.806517 88.373 -119.9172
11.892071 88.404 -120.3340
11.978246 88.434 -120.7490
12.065045 88.463 -121.1598
12.152473 88.491 -121.5654
12.240536 88.518 -121.9677
12.329235 88.544 -122.3652
12.418578 88.570 -122.7568
12.508568 88.595 -123.1410
12.599211 88.620 -123.5176
12.690510 88.644 -123.8882
12.782471 88.669 -124.2545
12.875097 88.694 -124.6171
12.968395 88.720 -124.9729
13.062370 88.745 -125.3256
13.157025 88.771 -125.6794
13.252366 88.798 -126.0361
13.348398 88.825 -126.3926
13.445127 88.852 -126.7515
13.542556 88.879 -127.1163
13.640691 88.906 -127.4886
13.739536 88.933 -127.8667
13.839099 88.958 -128.2495
13.939383 88.983 -128.6360
14.040393 89.006 -129.0291
14.142136 89.028 -129.4263
14.244616 89.048 -129.8220
14.347837 89.066 -130.2132
14.451808 89.082 -130.6038
14.556532 89.097 -130.9893
14.662014 89.112 -131.3640
14.768262 89.124 -131.7273
14.875278 89.136 -132.0808
14.983070 89.149 -132.4246
15.091644 89.162 -132.7568
15.201005 89.175 -133.0760
15.311157 89.189 -133.3891
15.422109 89.205 -133.7020
15.533863 89.223 -134.0093
15.646428 89.243 -134.3168
15.759809 89.263 -134.6342
15.874010 89.285 -134.9615
15.989040 89.309 -135.2973
16.104904 89.332 -135.6463
16.221605 89.354 -136.0121
16.339155 89.377 -136.3923
16.457554 89.397 -136.7811
16.576813 89.415 -137.1783
16.696936 89.431 -137.5856
16.817928 89.444 -137.9908
16.939798 89.455 -138.3880
17.062551 89.463 -138.7816
17.186193 89.469 -139.1618
17.310732 89.474 -139.5217
17.436172 89.478 -139.8647
17.562521 89.482 -140.1911
17.689787 89.487 -140.4975
17.817974 89.494 -140.7857
17.947090 89.503 -141.0673
18.077143 89.515 -141.3414
18.208138 89.529 -141.6102
18.340080 89.546 -141.8889
18.472980 89.565 -142.1762
18.606844 89.586 -142.4744
18.741676 89.607 -142.7912
18.877487 89.629 -143.1263
19.014280 89.649 -143.4755
19.152065 89.668 -143.8383
19.290850 89.685 -144.2151
19.430639 89.699 -144.5929
19.571442 89.710 -144.9731
19.713264 89.718 -145.3508
19.856115 89.724 -145.7151
20.000000 89.727 -146.0689
20.144928 89.730 -146.4072
20.290907 89.731 -146.7264
20.437943 89.732 -147.0289
20.586044 89.733 -147.3156
20.735220 89.735 -147.5850
20.885475 89.738 -147.8437
21.036821 89.743 -148.0917
21.189262 89.750 -148.3321
21.342808 89.758 -148.5712
21.497467 89.769 -148.8075
21.653246 89.781 -149.0494
21.810154 89.795 -149.2963
21.968201 89.810 -149.5535
22.127390 89.826 -149.8247
22.287735 89.843 -150.1098
22.449242 89.859 -150.4130
22.611917 89.874 -150.7333
22.775772 89.887 -151.0671
22.940815 89.897 -151.4163
23.107054 89.904 -151.7679
23.274498 89.906 -152.1225
23.443153 89.905 -152.4670
23.613033 89.900 -152.7944
23.784142 89.892 -153.1007
23.956491 89.884 -153.3753
24.130091 89.875 -153.6220
24.304947 89.868 -153.8396
24.481071 89.863 -154.0325
24.658470 89.863 -154.2149
24.837156 89.867 -154.3882
25.017136 89.876 -154.5740
25.198421 89.888 -154.7713
25.381020 89.901 -154.9943
25.564941 89.916 -155.2416
25.750195 89.930 -155.5110
25.936790 89.942 -155.8010
26.124741 89.951 -156.0977
26.314051 89.957 -156.3999
26.504732 89.961 -156.6935
26.696796 89.964 -156.9796
26.890253 89.966 -157.2532
27.085112 89.969 -157.5190
27.281382 89.974 -157.7820
27.479073 89.979 -158.0485
27.678198 89.986 -158.3261
27.878765 89.992 -158.6171
28.080786 89.997 -158.9252
28.284271 89.999 -159.2431
28.489231 89.998 -159.5697
28.695675 89.993 -159.8898
28.903616 89.984 -160.2001
29.113064 89.973 -160.4870
29.324028 89.959 -160.7487
29.536524 89.945 -160.9797
29.750557 89.932 -161.1841
29.966141 89.921 -161.3627
30.183289 89.913 -161.5251
30.402010 89.908 -161.6758
30.622314 89.907 -161.8228
30.844217 89.909 -161.9732
31.067726 89.914 -162.1305
31.292856 89.920 -162.3013
31.519617 89.929 -162.4871
31.748020 89.937 -162.6908
31.978081 89.945 -162.9115
32.209808 89.952 -163.1480
32.443211 89.956 -163.3956
32.678310 89.958 -163.6468
32.915108 89.956 -163.8965
33.153625 89.951 -164.1341
33.393871 89.945 -164.3559
33.635857 89.938 -164.5581
33.879597 89.931 -164.7419
34.125103 89.926 -164.9125
34.372387 89.922 -165.0747
34.621464 89.920 -165.2388
34.872345 89.920 -165.4090
35.125042 89.920 -165.5890
35.379574 89.920 -165.7791
35.635948 89.918 -165.9756
35.894180 89.915 -166.1755
36.154285 89.911 -166.3739
36.416275 89.907 -166.5691
36.680161 89.902 -166.7617
36.945961 89.898 -166.9535
37.213688 89.894 -167.1490
37.483353 89.891 -167.3515
37.754974 89.888 -167.5626
38.028561 89.885 -167.7831
38.304131 89.881 -168.0107
38.581699 89.877 -168.2430
38.861279 89.872 -168.4779
39.142883 89.867 -168.7141
39.426529 89.863 -168.9524
39.712231 89.859 -169.1944
40.000000 89.855 -169.4414
40.289856 89.852 -169.6937
40.581814 89.848 -169.9496
40.875885 89.843 -170.2044
41.172089 89.837 -170.4536
41.470440 89.831 -170.6930
41.770950 89.826 -170.9203
42.073643 89.820 -171.1351
42.378525 89.816 -171.3392
42.685616 89.813 -171.5346
42.994934 89.811 -171.7221
43.306492 89.809 -171.9019
43.620308 89.807 -172.0735
43.936401 89.805 -172.2370
44.254780 89.803 -172.3928
44.575470 89.801 -172.5417
44.898483 89.799 -172.6839
45.223835 89.796 -172.8193
45.551544 89.792 -172.9484
45.881630 89.789 -173.0739
46.214108 89.784 -173.1998
46.548996 89.780 -173.3302
46.886307 89.773 -173.4654
47.226067 89.765 -173.6011
47.568283 89.755 -173.7308
47.912983 89.746 -173.8535
48.260181 89.738 -173.9783
48.609894 89.733 -174.1221
48.962143 89.728 -174.2988
49.316940 89.720 -174.5076
49.674313 89.706 -174.7286
50.034271 89.689 -174.9328
50.396843 89.670 -175.1021
50.762039 89.657 -175.2454
51.129883 89.650 -175.3955
51.500389 89.648 -175.5867
51.873581 89.643 -175.8260
52.249481 89.631 -176.0828
52.628101 89.612 -176.3069
53.009464 89.590 -176.4635
53.393593 89.575 -176.5597
53.780506 89.569 -176.6395
54.170223 89.571 -176.7507
54.562763 89.573 -176.9109
54.958145 89.570 -177.0998
55.356396 89.560 -177.2812
55.757530 89.547 -177.4328
56.161572 89.535 -177.5592
56.568542 89.525 -177.6794
56.978462 89.514 -177.8060
57.391350 89.503 -177.9368
57.807232 89.491 -178.0647
58.226128 89.480 -178.1909
58.648056 89.469 -178.3244
59.073048 89.458 -178.4711
59.501114 89.446 -178.6256
59.932281 89.433 -178.7766
60.366577 89.420 -178.9209
60.804020 89.409 -179.0666
61.244629 89.398 -179.2212
61.688435 89.386 -179.3787
62.135452 89.373 -179.5215
62.585712 89.361 -179.6403
63.039234 89.353 -179.7490
63.496040 89.348 -179.8747
63.956161 89.343 179.9677
64.419617 89.332 179.7960
64.886421 89.315 179.6465
65.356621 89.297 179.5396
65.830215 89.283 179.4608
66.307251 89.274 179.3725
66.787743 89.265 179.2516
67.271713 89.253 179.1072
67.759193 89.236 178.9703
68.250206 89.217 178.8616
68.744774 89.201 178.7747
69.242928 89.190 178.6823
69.744690 89.180 178.5626
70.250084 89.169 178.4187
70.759148 89.153 178.2771
71.271896 89.136 178.1600
71.788361 89.122 178.0631
72.308571 89.110 177.9629
72.832550 89.099 177.8478
73.360321 89.086 177.7311
73.891922 89.071 177.6254
74.427376 89.057 177.5241
74.966705 89.043 177.4202
75.509949 89.026 177.3268
76.057121 89.011 177.2545
76.608261 89.000 177.1791
77.163399 88.991 177.0669
77.722557 88.978 176.9251
78.285767 88.959 176.7951
78.853058 88.939 176.6971
79.424461 88.923 176.6091
80.000000 88.908 176.5091
80.579712 88.892 176.4050
81.163628 88.876 176.3098
81.751770 88.860 176.2219
82.344177 88.845 176.1357
82.940880 88.830 176.0482
83.541901 88.816 175.9587
84.147285 88.800 175.8720
84.757050 88.785 175.7946
85.371231 88.770 175.7169
85.989868 88.756 175.6262
86.612984 88.739 175.5345
87.240616 88.722 175.4596
87.872803 88.706 175.3906
88.509560 88.692 175.3068
89.150940 88.675 175.2178
89.796967 88.657 175.1408
90.447670 88.639 175.0726
91.103088 88.623 175.0042
91.763260 88.608 174.9343
92.428215 88.593 174.8565
93.097992 88.576 174.7734
93.772614 88.557 174.7046
94.452133 88.541 174.6489
95.136566 88.526 174.5806
95.825966 88.509 174.5040
96.520363 88.490 174.4438
97.219788 88.474 174.3901
97.924286 88.457 174.3224
98.633881 88.439 174.2571
99.348625 88.421 174.2079
100.068542 88.405 174.1520
100.793686 88.389 174.0797
101.524078 88.369 174.0156
102.259766 88.351 173.9694
103.000778 88.336 173.9188
103.747162 88.319 173.8512
104.498962 88.300 173.7880
105.256203 88.281 173.7480
106.018929 88.265 173.7099
106.787186 88.248 173.6567
107.561012 88.230 173.6062
108.340446 88.211 173.5634
109.125526 88.193 173.5208
109.916290 88.174 173.4851
110.712791 88.156 173.4517
111.515060 88.138 173.4146
112.323143 88.120 173.3743
113.137085 88.100 173.3314
113.956924 88.079 173.3082
114.782700 88.063 173.2922
115.614464 88.046 173.2452
116.452255 88.026 173.1998
117.296112 88.006 173.1761
118.146095 87.988 173.1556
119.002228 87.973 173.1290
119.864563 87.956 173.0740
120.733154 87.931 173.0445
121.608040 87.913 173.0727
122.489258 87.902 173.0475
123.376869 87.880 172.9815
124.270905 87.856 172.9810
125.171425 87.839 172.9719
126.078468 87.818 172.9335
126.992081 87.796 172.9474
127.912323 87.783 172.9280
128.839233 87.761 172.8892
129.772842 87.741 172.9146
130.713242 87.727 172.9059
131.660431 87.707 172.8929
132.614502 87.689 172.8911
133.575485 87.666 172.8767
134.543427 87.645 172.9244
135.518387 87.632 172.9174
136.500412 87.609 172.9044
137.489548 87.594 172.9328
138.485855 87.577 172.8828
139.489380 87.551 172.8987
140.500168 87.537 172.9308
141.518295 87.519 172.9079
142.543793 87.498 172.9185
143.576721 87.479 172.9338
144.617142 87.461 172.9423
145.665100 87.442 172.9341
146.720642 87.418 172.9517
147.783844 87.400 173.0038
148.854752 87.385 172.9954
149.933411 87.360 173.0152
151.019897 87.343 173.0494
152.114243 87.322 173.0696
153.216522 87.310 173.0973
154.326797 87.288 173.0653
155.445114 87.271 173.1182
156.571533 87.251 173.1374
157.706116 87.242 173.2363
158.848923 87.229 173.2030
160.000000 87.207 173.2409
161.159424 87.177 173.2582
162.327255 87.161 173.3792
163.503540 87.136 173.3037
164.688354 87.107 173.4597
165.881760 87.101 173.4225
167.083801 87.071 173.4734
168.294571 87.063 173.4743
169.514099 87.031 173.5329
170.742462 87.028 173.6165
171.979736 87.002 173.5917
173.225967 86.985 173.7000
174.481232 86.967 173.7268
175.745605 86.950 173.7726
177.019119 86.922 173.7984
178.301880 86.905 173.8968
179.593933 86.887 173.8650
180.895340 86.855 173.9657
182.206177 86.857 174.0792
183.526520 86.836 174.1088
184.856430 86.838 174.2664
186.195984 86.820 174.2267
187.545227 86.783 174.3007
188.904266 86.738 174.5374
190.273132 86.747 174.7198
191.651932 86.727 174.5814
193.040726 86.711 174.6227
194.439575 86.655 174.4867
195.848572 86.634 175.1016
197.267761 86.724 174.8200
198.697250 86.533 174.4276
200.137085 86.620 175.7188
201.587372 86.580 174.9220
203.048157 86.610 175.1964
204.519531 86.489 175.1671
206.001556 86.509 175.5973
207.494324 86.513 175.7685
208.997925 86.504 175.6983
210.512405 86.437 175.6463
212.037857 86.424 176.1552
213.574371 86.424 176.2407
215.122025 86.413 176.3534
216.680893 86.411 176.4717
218.251053 86.392 176.6009
219.832581 86.378 176.7877
221.425583 86.379 177.0418
223.030121 86.342 177.2545
224.646286 86.301 177.2353
226.274170 86.313 178.2397
227.913849 86.338 177.7424
229.565399 86.360 177.8441
231.228928 86.341 177.7780
232.904510 86.330 177.9967
234.592224 86.338 178.2187
236.292191 86.360 178.2416
238.004456 86.349 178.3813
239.729126 86.320 178.5111
241.466309 86.363 178.5220
243.216080 86.359 178.6271
244.978516 86.350 178.5313
246.753738 86.348 178.6255
248.541809 86.342 178.6815
250.342850 86.336 178.7280
252.156937 86.318 178.7925
253.984161 86.311 178.8467
255.824646 86.297 178.9303
257.678467 86.287 179.0260
259.545685 86.273 178.9924
261.426483 86.261 179.1040
263.320862 86.260 179.2276
265.229004 86.253 179.3430
267.150970 86.247 179.4850
269.086853 86.230 179.4935
271.036774 86.228 179.6127
273.000824 86.202 179.6552
274.979095 86.182 179.7654
276.971710 86.189 179.8277
278.978760 86.178 -179.9742
281.000336 86.159 -179.8794
283.036591 86.143 -179.7701
285.087585 86.128 -179.6969
287.153442 86.122 -179.5418
289.234283 86.116 -179.4260
291.330200 86.100 -179.3449
293.441284 86.094 -179.2130
295.567688 86.082 -179.0655
297.709503 86.071 -178.9610
299.866821 86.066 -178.8428
302.039795 86.061 -178.7326
304.228485 86.051 -178.6240
306.433044 86.039 -178.4769
308.653595 86.035 -178.3026
310.890228 86.023 -178.1409
313.143066 86.007 -178.0442
315.412231 85.991 -177.9180
317.697845 85.987 -177.8061
320.000000 85.991 -177.6789
322.318848 85.981 -177.5111
324.654510 85.967 -177.3755
327.007080 85.965 -177.2569
329.376709 85.958 -177.1205
331.763519 85.952 -176.9652
334.167603 85.946 -176.8023
336.589142 85.935 -176.6354
339.028198 85.930 -176.5121
341.484924 85.921 -176.3507
343.959473 85.917 -176.2129
346.451935 85.913 -176.0477
348.962463 85.904 -175.9217
351.491211 85.901 -175.7381
354.038239 85.896 -175.6193
356.603760 85.891 -175.4606
359.187866 85.884 -175.3171
361.790680 85.877 -175.1490
364.412354 85.874 -174.9949
367.053040 85.874 -174.8384
369.712860 85.863 -174.6623
372.391968 85.858 -174.4906
375.090454 85.855 -174.3457
377.808533 85.853 -174.1635
380.546265 85.846 -173.9722
383.303864 85.841 -173.8577
386.081451 85.839 -173.7794
388.879150 85.857 -173.5266
391.697144 85.850 -173.2646
394.535522 85.828 -173.1304
397.394501 85.821 -173.0699
400.274170 85.838 -172.9686
403.174744 85.838 -172.6317
406.096313 85.832 -172.5288
409.039062 85.819 -172.3277
412.003113 85.825 -172.1193
414.988647 85.824 -171.9530
417.995850 85.819 -171.8103
421.024811 85.808 -171.5897
424.075714 85.816 -171.4382
427.148743 85.821 -171.2583
430.244049 85.819 -171.0520
433.361786 85.815 -170.8826
436.502106 85.817 -170.7049
439.665161 85.818 -170.4931
442.851166 85.819 -170.3323
446.060242 85.814 -170.1170
449.292572 85.821 -169.9274
452.548340 85.821 -169.7394
455.827698 85.826 -169.5089
459.130798 85.828 -169.3221
462.457855 85.829 -169.1252
465.809021 85.831 -168.9507
469.184448 85.833 -168.7573
472.584381 85.835 -168.4993
476.008911 85.838 -168.3110
479.458252 85.846 -168.0851
482.932617 85.852 -167.8869
486.432159 85.857 -167.6778
489.957031 85.865 -167.4556
493.507477 85.876 -167.2046
497.083618 85.878 -166.9575
500.685699 85.891 -166.7385
504.313873 85.903 -166.4748
507.968323 85.918 -166.2401
511.649292 85.939 -166.0040
515.356934 85.965 -165.7895
519.091370 85.993 -165.5600
522.852966 86.031 -165.4216
526.641724 86.066 -165.3485
530.458008 86.093 -165.3834
534.301941 86.105 -165.4753
538.173706 86.097 -165.5175
542.073547 86.080 -165.4950
546.001648 86.061 -165.3865
549.958191 86.048 -165.2209
553.943420 86.034 -165.0145
557.957520 86.025 -164.7844
562.000671 86.022 -164.5412
566.073181 86.022 -164.3116
570.175171 86.025 -164.0509
574.306885 86.032 -163.7898
578.468567 86.033 -163.5913
582.660400 86.033 -163.3522
586.882568 86.044 -163.0839
591.135376 86.044 -162.8683
595.419006 86.052 -162.5919
599.733643 86.062 -162.3461
604.079590 86.069 -162.0963
608.456970 86.079 -161.8737
612.866089 86.090 -161.5639
617.307190 86.096 -161.3103
621.780457 86.111 -161.0436
626.286133 86.119 -160.7508
630.824463 86.132 -160.4798
635.395691 86.146 -160.1541
640.000000 86.164 -159.8485
644.637695 86.187 -159.5276
649.309021 86.216 -159.1996
654.014160 86.248 -158.8956
658.753418 86.289 -158.6405
663.527039 86.327 -158.4400
668.335205 86.363 -158.2845
673.178284 86.393 -158.1500
678.056396 86.418 -158.0469
682.969849 86.435 -157.8972
687.918945 86.454 -157.7366
692.903870 86.470 -157.5651
697.924927 86.484 -157.3758
702.982422 86.500 -157.1801
708.076477 86.518 -156.9757
713.207520 86.535 -156.7542
718.375732 86.555 -156.5283
723.581360 86.574 -156.3043
728.824707 86.592 -156.0842
734.106079 86.614 -155.8499
739.425720 86.636 -155.6136
744.783936 86.660 -155.3796
750.180908 86.683 -155.1394
755.617065 86.708 -154.9102
761.092529 86.727 -154.6744
766.607727 86.756 -154.4245
772.162903 86.783 -154.1954
777.758301 86.814 -153.9508
783.394287 86.840 -153.7100
789.071045 86.868 -153.4853
794.789001 86.898 -153.2570
800.548340 86.928 -153.0037
806.349487 86.957 -152.7794
812.192627 86.991 -152.5373
818.078125 87.023 -152.3073
824.006226 87.058 -152.0677
829.977295 87.091 -151.8411
835.991699 87.126 -151.6117
842.049622 87.162 -151.3864
848.151428 87.199 -151.1634
854.297485 87.234 -150.9247
860.488098 87.274 -150.7088
866.723572 87.314 -150.4941
873.004211 87.354 -150.2753
879.330322 87.394 -150.0558
885.702332 87.439 -149.8560
892.120483 87.474 -149.6414
898.585144 87.523 -149.4431
905.096680 87.567 -149.2344
911.655396 87.609 -149.0351
918.261597 87.655 -148.8607
924.915710 87.703 -148.6755
931.618042 87.750 -148.4873
938.368896 87.795 -148.2930
945.168762 87.844 -148.1280
952.017822 87.894 -147.9668
958.916504 87.944 -147.7975
965.865234 87.993 -147.6602
972.864319 88.043 -147.5016
979.914062 88.094 -147.3560
987.014954 88.143 -147.2097
994.167236 88.196 -147.0642
1001.371399 88.247 -146.9460
1008.627747 88.299 -146.8103
1015.936646 88.351 -146.6997
1023.298584 88.404 -146.5975
1030.713867 88.457 -146.4966
1038.182739 88.511 -146.3895
1045.705933 88.564 -146.3122
1053.283447 88.617 -146.2195
1060.916016 88.670 -146.1422
1068.603882 88.725 -146.0683
1076.347412 88.778 -145.9943
1084.147095 88.833 -145.9534
1092.003296 88.886 -145.8945
1099.916382 88.940 -145.8500
1107.886841 88.993 -145.8031
1115.915039 89.044 -145.7766
1124.001343 89.098 -145.7444
1132.146362 89.151 -145.7209
1140.350342 89.201 -145.6915
1148.613770 89.255 -145.6927
1156.937134 89.308 -145.6726
1165.320801 89.358 -145.6734
1173.765137 89.409 -145.6761
1182.270752 89.459 -145.6804
1190.838013 89.511 -145.6956
1199.467285 89.560 -145.6952
1208.159180 89.610 -145.7243
1216.913940 89.659 -145.7569
1225.732178 89.710 -145.7842
1234.614380 89.757 -145.8052
1243.560913 89.805 -145.8629
1252.572266 89.853 -145.8802
1261.648926 89.901 -145.9216
1270.791382 89.945 -145.9644
1280.000000 89.992 -146.0142
1289.275391 90.038 -146.0656
1298.618042 90.085 -146.1131
1308.028320 90.130 -146.1736
1317.506836 90.173 -146.2262
1327.054077 90.218 -146.2934
1336.670410 90.262 -146.3582
1346.356567 90.304 -146.4247
1356.112793 90.347 -146.4843
1365.939697 90.390 -146.5503
1375.837891 90.431 -146.6218
1385.807739 90.472 -146.6894
1395.849854 90.513 -146.7690
1405.964844 90.553 -146.8528
1416.152954 90.595 -146.9276
1426.415039 90.633 -146.9992
1436.751465 90.672 -147.0736
1447.162720 90.712 -147.1631
1457.649414 90.751 -147.2456
1468.212158 90.789 -147.3152
1478.851440 90.827 -147.4128
1489.567871 90.862 -147.4829
1500.361816 90.900 -147.5619
1511.234131 90.937 -147.6558
1522.185059 90.973 -147.7217
1533.215454 91.009 -147.8194
1544.325806 91.045 -147.9052
1555.516602 91.080 -147.9805
1566.788574 91.115 -148.0706
1578.142090 91.150 -148.1620
1589.578003 91.184 -148.2444
1601.096680 91.219 -148.3344
1612.698975 91.254 -148.4167
1624.385254 91.286 -148.5015
1636.156250 91.320 -148.5806
1648.012451 91.353 -148.6655
1659.954590 91.385 -148.7591
1671.983398 91.417 -148.8312
1684.099243 91.451 -148.9167
1696.302856 91.482 -149.0011
1708.594971 91.514 -149.0856
1720.976196 91.546 -149.1649
1733.447144 91.577 -149.2580
1746.008423 91.608 -149.3321
1758.660645 91.639 -149.3979
1771.404663 91.670 -149.4820
1784.240967 91.703 -149.5524
1797.170288 91.733 -149.6399
1810.193359 91.764 -149.7145
1823.310791 91.796 -149.7852
1836.523193 91.827 -149.8638
1849.831421 91.857 -149.9292
1863.236084 91.889 -150.0079
1876.737793 91.920 -150.0866
1890.337524 91.952 -150.1387
1904.035645 91.982 -150.2141
1917.833008 92.012 -150.2764
1931.730469 92.044 -150.3563
1945.728638 92.075 -150.4157
1959.828125 92.107 -150.4842
1974.029907 92.139 -150.5529
1988.334473 92.170 -150.6166
2002.742798 92.203 -150.6742
2017.255493 92.235 -150.7456
2031.873291 92.266 -150.8040
2046.597168 92.299 -150.8651
2061.427734 92.332 -150.9174
2076.365479 92.364 -150.9900
2091.411865 92.397 -151.0416
2106.566895 92.432 -151.1160
2121.832031 92.467 -151.1711
2137.207764 92.500 -151.2335
2152.694824 92.534 -151.2934
2168.294189 92.569 -151.3468
2184.006592 92.605 -151.4098
2199.832764 92.640 -151.4709
2215.773682 92.676 -151.5314
2231.830078 92.711 -151.6000
2248.002686 92.749 -151.6622
2264.292725 92.787 -151.7166
2280.700684 92.825 -151.7855
2297.227539 92.862 -151.8395
2313.874268 92.900 -151.9142
2330.641602 92.939 -151.9763
2347.530273 92.979 -152.0395
2364.541504 93.019 -152.1123
2381.676025 93.058 -152.1798
2398.934570 93.101 -152.2555
2416.318359 93.144 -152.3249
2433.827881 93.185 -152.3957
2451.464355 93.229 -152.4751
2469.228760 93.273 -152.5602
2487.121826 93.318 -152.6628
2505.144531 93.363 -152.7367
2523.297852 93.409 -152.8506
2541.582764 93.456 -152.9451
2560.000000 93.505 -153.0499
2578.550781 93.550 -153.1698
2597.236084 93.598 -153.2841
2616.056641 93.644 -153.4109
2635.013672 93.693 -153.5383
2654.108154 93.742 -153.6732
2673.340820 93.790 -153.8006
2692.713135 93.839 -153.9469
2712.225586 93.888 -154.0911
2731.879395 93.939 -154.2353
2751.675781 93.991 -154.3967
2771.615479 94.042 -154.5471
2791.699707 94.095 -154.7406
2811.929688 94.150 -154.9070
2832.305908 94.202 -155.0907
2852.830078 94.257 -155.2834
2873.502930 94.312 -155.4985
2894.325439 94.368 -155.7220
2915.298828 94.423 -155.9598
2936.424316 94.477 -156.2022
2957.702881 94.533 -156.4542
2979.135742 94.591 -156.7338
3000.723633 94.644 -156.9951
3022.468262 94.699 -157.2892
3044.370117 94.752 -157.5902
3066.430908 94.807 -157.8929
3088.651611 94.860 -158.2143
3111.033203 94.916 -158.5483
3133.577148 94.968 -158.8888
3156.284180 95.020 -159.2441
3179.156006 95.072 -159.6004
3202.193359 95.125 -159.9724
3225.397949 95.176 -160.3603
3248.770508 95.227 -160.7587
3272.312500 95.279 -161.1607
3296.024902 95.328 -161.5750
3319.909180 95.379 -162.0040
3343.966797 95.428 -162.4539
3368.198486 95.477 -162.9076
3392.605713 95.524 -163.3795
3417.189941 95.571 -163.8595
3441.952393 95.617 -164.3614
3466.894287 95.662 -164.8715
3492.016846 95.707 -165.4008
3517.321289 95.750 -165.9362
3542.809326 95.791 -166.4774
3568.481934 95.833 -167.0565
3594.340576 95.871 -167.6481
3620.386719 95.910 -168.2396
3646.621582 95.946 -168.8570
3673.046387 95.981 -169.4857
3699.662842 96.014 -170.1317
3726.472168 96.044 -170.7925
3753.475586 96.075 -171.4675
3780.675049 96.099 -172.1502
3808.071289 96.126 -172.8616
3835.666016 96.148 -173.5817
3863.460938 96.168 -174.3199
3891.457275 96.186 -175.0833
3919.656250 96.199 -175.8534
3948.059814 96.211 -176.6403
3976.668945 96.219 -177.4516
4005.485596 96.223 -178.2706
4034.510986 96.222 -179.1135
4063.746582 96.219 -179.9608
4093.194336 96.211 179.1738
4122.855469 96.199 178.2861
4152.730957 96.180 177.4039
4182.823730 96.158 176.4886
4213.133789 96.129 175.5782
4243.664062 96.095 174.6600
4274.415527 96.056 173.7275
4305.389648 96.011 172.7919
4336.588379 95.959 171.8518
4368.013184 95.899 170.9275
4399.665527 95.836 169.9910
4431.547363 95.765 169.0660
4463.660156 95.685 168.1552
4496.005371 95.601 167.2427
4528.585449 95.509 166.3399
4561.401367 95.410 165.4742
4594.455078 95.306 164.6219
4627.748535 95.194 163.7853
4661.283203 95.077 162.9672
4695.060547 94.954 162.1793
4729.083008 94.823 161.4390
4763.352051 94.688 160.7224
4797.869141 94.546 160.0315
4832.636719 94.400 159.3908
4867.655762 94.247 158.7684
4902.928711 94.089 158.2150
4938.457520 93.931 157.6808
4974.243652 93.769 157.2216
5010.289062 93.598 156.7788
5046.595703 93.431 156.4016
5083.165527 93.257 156.0803
5120.000000 93.082 155.7977
5157.101562 92.906 155.5624
5194.472168 92.729 155.3950
5232.113281 92.549 155.2812
5270.027344 92.373 155.2005
5308.216309 92.198 155.1790
5346.681641 92.022 155.2108
5385.426270 91.844 155.2786
5424.451172 91.667 155.4053
5463.758789 91.495 155.6123
5503.351562 91.324 155.8364
5543.230957 91.155 156.1350
5583.399414 90.986 156.4664
5623.859375 90.825 156.8723
5664.611816 90.669 157.3317
5705.660156 90.517 157.8546
5747.005859 90.376 158.3973
5788.650879 90.238 159.0133
5830.597656 90.110 159.6545
5872.848633 89.992 160.3012
5915.405762 89.882 160.9274
5958.271484 89.780 161.5930
6001.447266 89.681 162.2426
6044.936523 89.582 162.8841
6088.740234 89.491 163.5307
6132.861816 89.395 164.2025
6177.303223 89.310 164.8884
6222.066406 89.222 165.5801
6267.154297 89.134 166.2917
6312.568359 89.051 167.0730
6358.312012 88.966 167.9520
6404.386719 88.897 168.8759
6450.795898 88.847 169.8101
6497.541016 88.810 170.7330
6544.625000 88.780 171.6320
6592.049805 88.761 172.6064
6639.818359 88.737 173.5097
6687.933594 88.739 174.5004
6736.396973 88.749 175.4568
6785.211426 88.765 176.4516
6834.379883 88.799 177.4186
6883.904785 88.847 178.3759
6933.788574 88.910 179.3458
6984.033691 88.992 -179.6902
7034.642578 89.092 -178.7752
7085.618652 89.210 -177.9138
7136.963867 89.357 -177.1949
7188.681152 89.513 -176.5653
7240.773438 89.688 -176.0512
7293.243164 89.868 -175.5986
7346.092773 90.065 -175.3026
7399.325684 90.287 -175.0278
7452.944336 90.533 -174.9601
7506.951172 90.801 -175.1073
7561.350098 91.097 -175.5432
7616.142578 91.402 -176.3090
7671.332031 91.707 -177.4676
7726.921875 92.011 -179.0078
7782.914551 92.303 179.0286
7839.312500 92.572 176.5848
7896.119629 92.792 173.6379
7953.337891 92.950 170.2404
8010.971191 92.991 166.4536
8069.021973 92.932 162.6531
8127.493164 92.777 159.0325
8186.388672 92.565 155.5682
8245.710938 92.280 152.1711
8305.461914 91.915 149.0481
8365.647461 91.491 146.2536
8426.267578 91.016 143.8937
8487.328125 90.502 142.0048
8548.831055 89.974 140.5664
8610.779297 89.441 139.5622
8673.176758 88.906 138.8899
8736.026367 88.380 138.6049
8799.331055 87.874 138.5865
8863.094727 87.380 138.9101
8927.320312 86.909 139.4327
8992.010742 86.460 140.1265
9057.170898 86.026 141.0166
9122.802734 85.619 142.0995
9188.910156 85.240 143.3107
9255.497070 84.877 144.6407
9322.566406 84.542 146.0673
9390.121094 84.221 147.5204
9458.166016 83.927 149.1377
9526.704102 83.644 150.7141
9595.738281 83.393 152.2759
9665.273438 83.151 154.1068
9735.311523 82.936 155.7601
9805.857422 82.726 157.4545
9876.915039 82.539 159.2224
9948.487305 82.379 160.9987
10020.578125 82.224 162.6391
10093.191406 82.081 164.3150
10166.331055 81.958 165.9689
10240.000000 81.844 167.6208
10314.203125 81.741 169.3019
10388.944336 81.653 170.8402
10464.226562 81.580 172.2846
10540.054688 81.522 173.9228
10616.432617 81.463 175.3370
10693.363281 81.406 176.8101
10770.852539 81.374 178.0936
10848.902344 81.332 179.4901
10927.517578 81.309 -179.3166
11006.703125 81.278 -178.0083
11086.461914 81.263 -176.8725
11166.798828 81.255 -175.6458
11247.718750 81.231 -174.6570
11329.223633 81.229 -173.7084
11411.320312 81.238 -172.6663
11494.011719 81.230 -171.5956
11577.301758 81.247 -170.7840
11661.195312 81.272 -169.9943
11745.697266 81.279 -169.1717
11830.811523 81.300 -168.5134
11916.542969 81.314 -167.8864
12002.894531 81.342 -167.3138
12089.873047 81.389 -166.8739
12177.480469 81.417 -166.5277
12265.723633 81.467 -166.3103
12354.606445 81.509 -166.2296
12444.132812 81.545 -166.2571
12534.308594 81.586 -166.4605
12625.136719 81.603 -166.7796
12716.624023 81.635 -167.4377
12808.773438 81.606 -168.0332
12901.591797 81.563 -168.9553
12995.082031 81.510 -169.8071
13089.250000 81.400 -170.8696
13184.099609 81.245 -171.9485
13279.636719 81.087 -173.0959
13375.867188 80.845 -174.1073
13472.793945 80.589 -175.1804
13570.422852 80.277 -176.0319
13668.759766 79.945 -176.6163
13767.809570 79.589 -177.2493
13867.577148 79.193 -177.4102
13968.067383 78.804 -177.5538
14069.285156 78.389 -177.2872
14171.237305 77.984 -176.9442
14273.927734 77.558 -176.2538
14377.362305 77.166 -175.2311
14481.546875 76.739 -174.1120
14586.486328 76.345 -172.6157
14692.185547 75.980 -171.2145
14798.651367 75.623 -169.3880
14905.888672 75.294 -167.5248
15013.902344 74.999 -165.4792
15122.700195 74.732 -163.3891
15232.285156 74.540 -161.0137
15342.664062 74.309 -158.7755
15453.843750 74.134 -156.5809
15565.829102 74.005 -154.2270
15678.625000 73.901 -152.0328
15792.239258 73.822 -149.8703
15906.675781 73.791 -147.3279
16021.942383 73.741 -145.5042
16138.043945 73.814 -143.0326
16254.986328 73.818 -141.1903
16372.777344 73.930 -138.8819
16491.421875 74.068 -137.1971
16610.923828 74.311 -135.4156
16731.294922 74.610 -134.4931
16852.535156 74.961 -134.1947
16974.656250 75.326 -134.6088
17097.662109 75.736 -136.2818
17221.558594 76.050 -138.8038
17346.353516 76.307 -142.8689
17472.052734 76.323 -148.3044
17598.662109 76.033 -154.1668
17726.189453 75.484 -160.2210
17854.640625 74.565 -165.0722
17984.021484 73.392 -168.0536
18114.341797 72.223 -169.0564
18245.605469 71.082 -168.5978
18377.820312 69.973 -167.0844
18510.994141 68.924 -164.2179
18645.132812 67.966 -161.4852
18780.242188 67.143 -157.9746
18916.332031 66.304 -154.2522
19053.408203 65.639 -149.4577
19191.476562 64.933 -145.3118
19330.546875 64.265 -142.1156
19470.623047 63.635 -136.5059
19611.714844 63.050 -132.7284
19753.830078 62.051 -129.9365
19896.974609 61.399 -126.1051
