* Measurement data measured by REW V5.20.4
* Source: Microphone (BGVP HiFi Audio-T01s), MICROPHONE (Master Volume), R, volume: 0.260
* Format: 256k Log Swept Sine, 1 sweep at -6.0 dBFS with no timing reference
* Dated: 30 May, 2023 12:36:30 AM
* REW Settings:
*  C-weighting compensation: Off
*  Target level: 75.0 dB
* Note: 
* Measurement: HA-FDX1 Blue L
* Smoothing: None
* Frequency Step: 1/96 octave
* Start Frequency: 0.366 Hz
*
* Freq(Hz) SPL(dB) Phase(degrees)
0.366299 39.993 -169.3089
0.368954 39.903 -168.7751
0.371627 39.812 -168.2164
0.374320 39.720 -167.6326
0.377033 39.628 -167.0235
0.379765 39.535 -166.3889
0.382517 39.442 -165.7288
0.385289 39.347 -165.0428
0.388081 39.253 -164.3309
0.390893 39.157 -163.5929
0.393725 39.061 -162.8286
0.396578 38.964 -162.0381
0.399452 38.866 -161.2210
0.402347 38.768 -160.3774
0.405262 38.669 -159.5070
0.408199 38.569 -158.6099
0.411157 38.468 -157.6859
0.414136 38.367 -156.7349
0.417137 38.265 -155.7569
0.420160 38.162 -154.7517
0.423205 38.059 -153.7195
0.426272 37.955 -152.6601
0.429361 37.850 -151.5735
0.432472 37.744 -150.4597
0.435606 37.637 -149.3186
0.438762 37.530 -148.1504
0.441942 37.422 -146.9550
0.445144 37.313 -145.7325
0.448370 37.204 -144.4830
0.451619 37.093 -143.2065
0.454892 36.982 -141.9030
0.458188 36.870 -140.5728
0.461508 36.757 -139.2159
0.464852 36.643 -137.8326
0.468221 36.529 -136.4228
0.471614 36.414 -134.9869
0.475031 36.298 -133.5250
0.478474 36.181 -132.0373
0.481941 36.063 -130.5242
0.485433 35.944 -128.9857
0.488951 35.825 -127.4224
0.492494 35.704 -125.8344
0.496063 35.583 -124.2221
0.499658 35.461 -122.5858
0.503278 35.338 -120.9260
0.506925 35.214 -119.2430
0.510599 35.089 -117.5373
0.514299 34.963 -115.8095
0.518025 34.836 -114.0599
0.521779 34.709 -112.2891
0.525560 34.580 -110.4977
0.529369 34.451 -108.6863
0.533205 34.321 -106.8555
0.537069 34.189 -105.0060
0.540960 34.057 -103.1384
0.544880 33.924 -101.2536
0.548829 33.790 -99.3523
0.552806 33.654 -97.4354
0.556812 33.518 -95.5036
0.560847 33.381 -93.5579
0.564911 33.243 -91.5993
0.569004 33.104 -89.6287
0.573128 32.964 -87.6472
0.577281 32.823 -85.6558
0.581464 32.681 -83.6558
0.585677 32.537 -81.6482
0.589921 32.393 -79.6343
0.594196 32.248 -77.6155
0.598502 32.102 -75.5931
0.602839 31.954 -73.5684
0.607207 31.806 -71.5430
0.611608 31.656 -69.5183
0.616040 31.506 -67.4961
0.620504 31.354 -65.4778
0.625000 31.201 -63.4652
0.629529 31.047 -61.4602
0.634091 30.892 -59.4645
0.638686 30.736 -57.4802
0.643314 30.579 -55.5091
0.647976 30.420 -53.5535
0.652671 30.261 -51.6154
0.657401 30.100 -49.6970
0.662164 29.938 -47.8008
0.666963 29.775 -45.9291
0.671796 29.611 -44.0844
0.676664 29.445 -42.2693
0.681567 29.279 -40.4865
0.686506 29.111 -38.7387
0.691481 28.942 -37.0288
0.696492 28.771 -35.3598
0.701539 28.600 -33.7348
0.706622 28.427 -32.1570
0.711743 28.253 -30.6296
0.716900 28.078 -29.1561
0.722095 27.901 -27.7399
0.727328 27.724 -26.3848
0.732599 27.553 -25.0944
0.737907 27.625 -23.8524
0.743254 27.715 -22.6423
0.748640 27.821 -21.4641
0.754065 27.945 -20.3178
0.759530 28.086 -19.2035
0.765033 28.243 -18.1212
0.770577 28.417 -17.0708
0.776161 28.607 -16.0522
0.781785 28.814 -15.0655
0.787451 29.037 -14.1104
0.793157 29.276 -13.1869
0.798904 29.531 -12.2948
0.804694 29.801 -11.4339
0.810525 30.086 -10.6041
0.816398 30.387 -9.8050
0.822314 30.702 -9.0365
0.828273 31.032 -8.2982
0.834275 31.375 -7.5897
0.840320 31.733 -6.9108
0.846410 32.103 -6.2609
0.852543 32.487 -5.6398
0.858721 32.883 -5.0468
0.864944 33.292 -4.4816
0.871211 33.711 -3.9434
0.877525 34.143 -3.4318
0.883883 34.584 -2.9461
0.890288 35.036 -2.4856
0.896740 35.497 -2.0495
0.903238 35.967 -1.6372
0.909783 36.445 -1.2477
0.916376 36.931 -0.8802
0.923016 37.423 -0.5338
0.929705 37.922 -0.2074
0.936442 38.425 0.0999
0.943228 38.933 0.3894
0.950063 39.445 0.6620
0.956947 39.960 0.9191
0.963882 40.476 1.1620
0.970866 40.993 1.3919
0.977902 41.509 1.6104
0.984988 42.025 1.8189
0.992126 42.538 2.0189
0.999315 43.047 2.2122
1.006557 43.552 2.4003
1.013850 44.050 2.5852
1.021197 44.542 2.7687
1.028597 45.024 2.9527
1.036051 45.497 3.1393
1.043558 45.958 3.3307
1.051121 46.406 3.5290
1.058737 46.839 3.7365
1.066409 47.256 3.9558
1.074137 47.654 4.1893
1.081921 48.033 4.4397
1.089761 48.391 4.7096
1.097658 48.725 5.0020
1.105612 49.040 5.2994
1.113623 49.347 5.5714
1.121693 49.645 5.8176
1.129821 49.935 6.0387
1.138009 50.216 6.2348
1.146255 50.489 6.4063
1.154561 50.755 6.5539
1.162928 51.013 6.6778
1.171355 51.263 6.7786
1.179843 51.506 6.8569
1.188393 51.741 6.9131
1.197004 51.970 6.9481
1.205678 52.192 6.9623
1.214415 52.407 6.9565
1.223215 52.616 6.9314
1.232079 52.819 6.8879
1.241007 53.017 6.8267
1.250000 53.209 6.7487
1.259058 53.396 6.6549
1.268182 53.578 6.5462
1.277371 53.756 6.4237
1.286628 53.930 6.2884
1.295951 54.101 6.1415
1.305342 54.268 5.9842
1.314801 54.433 5.8176
1.324329 54.595 5.6432
1.333925 54.756 5.4623
1.343592 54.916 5.2764
1.353328 55.075 5.0868
1.363135 55.233 4.8953
1.373013 55.393 4.7035
1.382962 55.553 4.5130
1.392983 55.715 4.3257
1.403078 55.879 4.1435
1.413245 56.046 3.9682
1.423486 56.217 3.8019
1.433801 56.393 3.6467
1.444191 56.574 3.5049
1.454656 56.761 3.3786
1.465197 56.955 3.2704
1.475815 57.152 3.1686
1.486509 57.346 3.0619
1.497281 57.539 2.9502
1.508131 57.730 2.8337
1.519059 57.920 2.7123
1.530067 58.107 2.5862
1.541154 58.293 2.4553
1.552322 58.478 2.3198
1.563571 58.660 2.1797
1.574901 58.842 2.0350
1.586314 59.022 1.8859
1.597809 59.200 1.7325
1.609387 59.378 1.5748
1.621049 59.554 1.4129
1.632796 59.729 1.2469
1.644628 59.903 1.0770
1.656546 60.076 0.9032
1.668550 60.248 0.7257
1.680641 60.420 0.5446
1.692819 60.591 0.3601
1.705086 60.761 0.1722
1.717442 60.931 -0.0189
1.729887 61.101 -0.2129
1.742423 61.270 -0.4098
1.755049 61.440 -0.6094
1.767767 61.609 -0.8114
1.780577 61.779 -1.0158
1.793480 61.950 -1.2221
1.806476 62.121 -1.4304
1.819566 62.292 -1.6403
1.832752 62.465 -1.8516
1.846033 62.637 -2.0662
1.859410 62.808 -2.2855
1.872884 62.978 -2.5092
1.886456 63.147 -2.7375
1.900126 63.315 -2.9701
1.913895 63.482 -3.2072
1.927764 63.648 -3.4485
1.941733 63.813 -3.6941
1.955804 63.977 -3.9438
1.969976 64.140 -4.1976
1.984251 64.302 -4.4553
1.998630 64.463 -4.7170
2.013113 64.624 -4.9825
2.027701 64.784 -5.2516
2.042394 64.943 -5.5244
2.057194 65.102 -5.8006
2.072102 65.260 -6.0801
2.087117 65.418 -6.3629
2.102241 65.575 -6.6488
2.117475 65.733 -6.9376
2.132819 65.890 -7.2291
2.148274 66.046 -7.5234
2.163841 66.203 -7.8200
2.179522 66.360 -8.1190
2.195315 66.517 -8.4201
2.211223 66.674 -8.7241
2.227247 66.830 -9.0325
2.243386 66.985 -9.3453
2.259643 67.138 -9.6624
2.276017 67.291 -9.9837
2.292510 67.443 -10.3092
2.309123 67.594 -10.6386
2.325855 67.744 -10.9720
2.342710 67.893 -11.3092
2.359686 68.041 -11.6501
2.376785 68.189 -11.9945
2.394008 68.336 -12.3424
2.411356 68.482 -12.6936
2.428830 68.627 -13.0480
2.446430 68.772 -13.4054
2.464158 68.917 -13.7656
2.482014 69.061 -14.1286
2.500000 69.204 -14.4941
2.518116 69.347 -14.8619
2.536363 69.490 -15.2319
2.554743 69.633 -15.6038
2.573256 69.776 -15.9778
2.591902 69.917 -16.3556
2.610684 70.058 -16.7373
2.629603 70.197 -17.1227
2.648658 70.335 -17.5118
2.667851 70.473 -17.9045
2.687183 70.609 -18.3005
2.706656 70.744 -18.6998
2.726269 70.879 -19.1021
2.746025 71.012 -19.5074
2.765924 71.145 -19.9155
2.785967 71.277 -20.3262
2.806155 71.409 -20.7393
2.826490 71.540 -21.1546
2.846972 71.670 -21.5720
2.867602 71.799 -21.9911
2.888382 71.928 -22.4119
2.909312 72.057 -22.8340
2.930394 72.186 -23.2572
2.951629 72.313 -23.6826
2.973018 72.439 -24.1109
2.994561 72.565 -24.5420
3.016261 72.689 -24.9759
3.038118 72.812 -25.4122
3.060134 72.934 -25.8509
3.082309 73.055 -26.2917
3.104645 73.175 -26.7346
3.127142 73.294 -27.1793
3.149803 73.412 -27.6256
3.172627 73.530 -28.0732
3.195618 73.647 -28.5221
3.218774 73.763 -28.9719
3.242099 73.878 -29.4225
3.265593 73.994 -29.8735
3.289256 74.108 -30.3248
3.313092 74.222 -30.7765
3.337100 74.335 -31.2296
3.361282 74.447 -31.6842
3.385639 74.557 -32.1400
3.410173 74.667 -32.5969
3.434884 74.775 -33.0548
3.459775 74.882 -33.5135
3.484846 74.989 -33.9728
3.510098 75.094 -34.4326
3.535534 75.199 -34.8927
3.561154 75.303 -35.3528
3.586959 75.407 -35.8129
3.612952 75.510 -36.2727
3.639133 75.612 -36.7320
3.665504 75.714 -37.1905
3.692065 75.816 -37.6486
3.718820 75.916 -38.1065
3.745768 76.015 -38.5641
3.772911 76.113 -39.0213
3.800251 76.210 -39.4782
3.827789 76.306 -39.9345
3.855527 76.401 -40.3904
3.883466 76.496 -40.8457
3.911607 76.590 -41.3003
3.939952 76.684 -41.7543
3.968503 76.777 -42.2075
3.997260 76.869 -42.6599
4.026226 76.962 -43.1114
4.055401 77.054 -43.5616
4.084789 77.145 -44.0102
4.114388 77.235 -44.4572
4.144203 77.324 -44.9028
4.174234 77.413 -45.3472
4.204482 77.501 -45.7904
4.234950 77.588 -46.2325
4.265638 77.675 -46.6738
4.296548 77.761 -47.1144
4.327683 77.847 -47.5544
4.359043 77.933 -47.9941
4.390630 78.019 -48.4335
4.422447 78.105 -48.8721
4.454494 78.189 -49.3086
4.486773 78.274 -49.7434
4.519286 78.357 -50.1767
4.552034 78.441 -50.6088
4.585020 78.523 -51.0401
4.618245 78.606 -51.4709
4.651711 78.688 -51.9015
4.685419 78.770 -52.3324
4.719372 78.851 -52.7639
4.753570 78.933 -53.1964
4.788016 79.015 -53.6294
4.822712 79.096 -54.0613
4.857660 79.176 -54.4924
4.892860 79.257 -54.9230
4.928316 79.337 -55.3534
4.964029 79.417 -55.7841
5.000000 79.496 -56.2154
5.036232 79.575 -56.6477
5.072727 79.654 -57.0814
5.109486 79.733 -57.5170
5.146511 79.811 -57.9546
5.183805 79.890 -58.3929
5.221369 79.968 -58.8318
5.259205 80.045 -59.2715
5.297316 80.123 -59.7121
5.335702 80.199 -60.1540
5.374367 80.276 -60.5971
5.413311 80.352 -61.0419
5.452538 80.428 -61.4884
5.492050 80.504 -61.9370
5.531847 80.579 -62.3875
5.571934 80.653 -62.8397
5.612310 80.728 -63.2935
5.652979 80.801 -63.7487
5.693943 80.875 -64.2054
5.735204 80.948 -64.6633
5.776763 81.020 -65.1223
5.818624 81.092 -65.5824
5.860788 81.163 -66.0434
5.903258 81.234 -66.5057
5.946035 81.305 -66.9696
5.989123 81.374 -67.4347
6.032523 81.443 -67.9007
6.076237 81.512 -68.3674
6.120268 81.580 -68.8344
6.164618 81.648 -69.3015
6.209289 81.715 -69.7682
6.254284 81.782 -70.2344
6.299605 81.848 -70.7009
6.345255 81.913 -71.1674
6.391235 81.978 -71.6339
6.437549 82.043 -72.1000
6.484198 82.107 -72.5655
6.531185 82.170 -73.0302
6.578513 82.234 -73.4938
6.626183 82.297 -73.9561
6.674199 82.360 -74.4171
6.722563 82.422 -74.8769
6.771278 82.484 -75.3357
6.820345 82.545 -75.7935
6.869768 82.606 -76.2504
6.919549 82.668 -76.7067
6.969691 82.729 -77.1625
7.020196 82.790 -77.6166
7.071068 82.851 -78.0691
7.122308 82.912 -78.5204
7.173919 82.972 -78.9709
7.225904 83.033 -79.4214
7.278266 83.093 -79.8722
7.331007 83.154 -80.3240
7.384131 83.215 -80.7755
7.437639 83.275 -81.2263
7.491535 83.336 -81.6770
7.545822 83.396 -82.1281
7.600502 83.457 -82.5802
7.655579 83.517 -83.0340
7.711054 83.578 -83.4900
7.766932 83.638 -83.9472
7.823214 83.699 -84.4054
7.879904 83.759 -84.8649
7.937005 83.819 -85.3259
7.994520 83.879 -85.7887
8.052452 83.939 -86.2535
8.110803 83.998 -86.7206
8.169578 84.057 -87.1898
8.228777 84.116 -87.6608
8.288406 84.174 -88.1332
8.348468 84.232 -88.6067
8.408964 84.290 -89.0809
8.469899 84.347 -89.5561
8.531276 84.403 -90.0330
8.593097 84.459 -90.5110
8.655366 84.515 -90.9893
8.718086 84.569 -91.4671
8.781260 84.624 -91.9435
8.844893 84.677 -92.4187
8.908987 84.730 -92.8938
8.973545 84.782 -93.3680
9.038571 84.834 -93.8405
9.104069 84.886 -94.3106
9.170040 84.936 -94.7776
9.236490 84.987 -95.2417
9.303422 85.037 -95.7032
9.370838 85.086 -96.1619
9.438744 85.135 -96.6176
9.507140 85.183 -97.0701
9.576033 85.232 -97.5188
9.645425 85.280 -97.9635
9.715320 85.328 -98.4047
9.785721 85.376 -98.8428
9.856632 85.424 -99.2785
9.928058 85.471 -99.7117
10.000000 85.519 -100.1412
10.072464 85.567 -100.5675
10.145453 85.614 -100.9916
10.218971 85.662 -101.4145
10.293022 85.710 -101.8369
10.367610 85.758 -102.2570
10.442738 85.805 -102.6754
10.518411 85.853 -103.0930
10.594631 85.901 -103.5107
10.671404 85.948 -103.9291
10.748734 85.996 -104.3470
10.826623 86.043 -104.7646
10.905077 86.090 -105.1825
10.984100 86.137 -105.6011
11.063695 86.184 -106.0203
11.143867 86.230 -106.4401
11.224621 86.276 -106.8600
11.305959 86.321 -107.2800
11.387886 86.366 -107.6999
11.470407 86.410 -108.1201
11.553527 86.454 -108.5402
11.637249 86.497 -108.9597
11.721577 86.540 -109.3779
11.806517 86.582 -109.7951
11.892071 86.623 -110.2113
11.978246 86.663 -110.6261
12.065045 86.703 -111.0389
12.152473 86.743 -111.4494
12.240536 86.782 -111.8579
12.329235 86.820 -112.2642
12.418578 86.858 -112.6682
12.508568 86.895 -113.0698
12.599211 86.932 -113.4686
12.690510 86.969 -113.8650
12.782471 87.005 -114.2595
12.875097 87.041 -114.6522
12.968395 87.076 -115.0423
13.062370 87.112 -115.4306
13.157025 87.147 -115.8177
13.252366 87.181 -116.2042
13.348398 87.216 -116.5890
13.445127 87.250 -116.9729
13.542556 87.284 -117.3568
13.640691 87.318 -117.7408
13.739536 87.352 -118.1243
13.839099 87.385 -118.5077
13.939383 87.418 -118.8916
14.040393 87.450 -119.2759
14.142136 87.482 -119.6603
14.244616 87.514 -120.0448
14.347837 87.545 -120.4294
14.451808 87.576 -120.8141
14.556532 87.607 -121.1987
14.662014 87.637 -121.5829
14.768262 87.667 -121.9666
14.875278 87.696 -122.3498
14.983070 87.725 -122.7324
15.091644 87.753 -123.1142
15.201005 87.782 -123.4952
15.311157 87.810 -123.8755
15.422109 87.838 -124.2556
15.533863 87.865 -124.6349
15.646428 87.893 -125.0138
15.759809 87.920 -125.3930
15.874010 87.947 -125.7722
15.989040 87.974 -126.1516
16.104904 88.001 -126.5315
16.221605 88.028 -126.9122
16.339155 88.054 -127.2933
16.457554 88.080 -127.6749
16.576813 88.106 -128.0571
16.696936 88.132 -128.4397
16.817928 88.157 -128.8222
16.939798 88.182 -129.2042
17.062551 88.206 -129.5859
17.186193 88.230 -129.9667
17.310732 88.254 -130.3460
17.436172 88.278 -130.7240
17.562521 88.301 -131.1003
17.689787 88.324 -131.4746
17.817974 88.346 -131.8469
17.947090 88.369 -132.2175
18.077143 88.391 -132.5862
18.208138 88.414 -132.9531
18.340080 88.436 -133.3186
18.472980 88.458 -133.6826
18.606844 88.480 -134.0453
18.741676 88.502 -134.4072
18.877487 88.523 -134.7680
19.014280 88.545 -135.1279
19.152065 88.566 -135.4871
19.290850 88.587 -135.8453
19.430639 88.607 -136.2023
19.571442 88.627 -136.5583
19.713264 88.646 -136.9125
19.856115 88.665 -137.2643
20.000000 88.684 -137.6140
20.144928 88.701 -137.9599
20.290907 88.719 -138.3018
20.437943 88.735 -138.6392
20.586044 88.752 -138.9707
20.735220 88.767 -139.2964
20.885475 88.783 -139.6162
21.036821 88.799 -139.9292
21.189262 88.816 -140.2370
21.342808 88.833 -140.5411
21.497467 88.850 -140.8411
21.653246 88.869 -141.1422
21.810154 88.888 -141.4438
21.968201 88.908 -141.7499
22.127390 88.928 -142.0634
22.287735 88.948 -142.3840
22.449242 88.968 -142.7148
22.611917 88.988 -143.0551
22.775772 89.006 -143.4023
22.940815 89.022 -143.7576
23.107054 89.036 -144.1139
23.274498 89.048 -144.4713
23.443153 89.058 -144.8242
23.613033 89.066 -145.1693
23.784142 89.073 -145.5058
23.956491 89.080 -145.8303
24.130091 89.086 -146.1446
24.304947 89.092 -146.4499
24.481071 89.099 -146.7472
24.658470 89.107 -147.0421
24.837156 89.116 -147.3345
25.017136 89.126 -147.6300
25.198421 89.136 -147.9280
25.381020 89.146 -148.2301
25.564941 89.156 -148.5358
25.750195 89.166 -148.8430
25.936790 89.175 -149.1515
26.124741 89.184 -149.4588
26.314051 89.193 -149.7652
26.504732 89.203 -150.0709
26.696796 89.212 -150.3765
26.890253 89.221 -150.6847
27.085112 89.231 -150.9959
27.281382 89.240 -151.3123
27.479073 89.249 -151.6322
27.678198 89.256 -151.9557
27.878765 89.262 -152.2782
28.080786 89.267 -152.5981
28.284271 89.271 -152.9102
28.489231 89.274 -153.2135
28.695675 89.276 -153.5063
28.903616 89.279 -153.7894
29.113064 89.283 -154.0658
29.324028 89.287 -154.3383
29.536524 89.293 -154.6104
29.750557 89.298 -154.8844
29.966141 89.304 -155.1612
30.183289 89.309 -155.4394
30.402010 89.313 -155.7172
30.622314 89.317 -155.9913
30.844217 89.320 -156.2598
31.067726 89.324 -156.5217
31.292856 89.327 -156.7785
31.519617 89.331 -157.0329
31.748020 89.337 -157.2879
31.978081 89.342 -157.5476
32.209808 89.348 -157.8129
32.443211 89.352 -158.0843
32.678310 89.356 -158.3587
32.915108 89.359 -158.6341
33.153625 89.360 -158.9058
33.393871 89.361 -159.1728
33.635857 89.362 -159.4341
33.879597 89.363 -159.6918
34.125103 89.364 -159.9486
34.372387 89.365 -160.2068
34.621464 89.366 -160.4684
34.872345 89.366 -160.7323
35.125042 89.366 -160.9971
35.379574 89.364 -161.2585
35.635948 89.362 -161.5141
35.894180 89.359 -161.7623
36.154285 89.357 -162.0030
36.416275 89.356 -162.2395
36.680161 89.355 -162.4747
36.945961 89.355 -162.7120
37.213688 89.356 -162.9542
37.483353 89.356 -163.2012
37.754974 89.356 -163.4521
38.028561 89.355 -163.7048
38.304131 89.352 -163.9559
38.581699 89.350 -164.2034
38.861279 89.346 -164.4458
39.142883 89.342 -164.6826
39.426529 89.339 -164.9146
39.712231 89.336 -165.1437
40.000000 89.333 -165.3719
40.289856 89.331 -165.6013
40.581814 89.328 -165.8332
40.875885 89.325 -166.0671
41.172089 89.321 -166.3012
41.470440 89.317 -166.5332
41.770950 89.312 -166.7613
42.073643 89.307 -166.9849
42.378525 89.303 -167.2054
42.685616 89.298 -167.4253
42.994934 89.294 -167.6458
43.306492 89.289 -167.8674
43.620308 89.284 -168.0885
43.936401 89.278 -168.3071
44.254780 89.273 -168.5220
44.575470 89.267 -168.7337
44.898483 89.261 -168.9440
45.223835 89.255 -169.1540
45.551544 89.250 -169.3640
45.881630 89.243 -169.5731
46.214108 89.237 -169.7805
46.548996 89.230 -169.9866
46.886307 89.223 -170.1923
47.226067 89.216 -170.3983
47.568283 89.208 -170.6026
47.912983 89.199 -170.8017
48.260181 89.190 -170.9930
48.609894 89.182 -171.1779
48.962143 89.174 -171.3611
49.316940 89.168 -171.5483
49.674313 89.162 -171.7420
50.034271 89.156 -171.9415
50.396843 89.150 -172.1456
50.762039 89.143 -172.3562
51.129883 89.136 -172.5778
51.500389 89.126 -172.8100
51.873581 89.113 -173.0416
52.249481 89.095 -173.2514
52.628101 89.076 -173.4212
53.009464 89.061 -173.5516
53.393593 89.053 -173.6675
53.780506 89.050 -173.8036
54.170223 89.050 -173.9800
54.562763 89.046 -174.1873
54.958145 89.037 -174.3953
55.356396 89.025 -174.5785
55.757530 89.014 -174.7367
56.161572 89.007 -174.8936
56.568542 89.002 -175.0729
56.978462 88.994 -175.2753
57.391350 88.981 -175.4780
57.807232 88.965 -175.6556
58.226128 88.949 -175.8031
58.648056 88.936 -175.9372
59.073048 88.927 -176.0800
59.501114 88.917 -176.2404
59.932281 88.906 -176.4110
60.366577 88.893 -176.5802
60.804020 88.880 -176.7443
61.244629 88.867 -176.9060
61.688435 88.854 -177.0670
62.135452 88.841 -177.2249
62.585712 88.828 -177.3802
63.039234 88.818 -177.5414
63.496040 88.807 -177.7183
63.956161 88.793 -177.9070
64.419617 88.775 -178.0851
64.886421 88.754 -178.2286
65.356621 88.737 -178.3359
65.830215 88.725 -178.4321
66.307251 88.716 -178.5470
66.787743 88.708 -178.6883
67.271713 88.696 -178.8409
67.759193 88.682 -178.9854
68.250206 88.667 -179.1154
68.744774 88.653 -179.2364
69.242928 88.639 -179.3575
69.744690 88.626 -179.4852
70.250084 88.610 -179.6165
70.759148 88.593 -179.7351
71.271896 88.576 -179.8278
71.788361 88.565 -179.9117
72.308571 88.558 179.9715
72.832550 88.548 179.8087
73.360321 88.529 179.6502
73.891922 88.507 179.5529
74.427376 88.494 179.4976
74.966705 88.491 179.4012
75.509949 88.486 179.2228
76.057121 88.468 179.0228
76.608261 88.443 178.8831
77.163399 88.423 178.8018
77.722557 88.408 178.7170
78.285767 88.395 178.6045
78.853058 88.379 178.4901
79.424461 88.363 178.3862
80.000000 88.348 178.2764
80.579712 88.332 178.1585
81.163628 88.314 178.0521
81.751770 88.298 177.9589
82.344177 88.283 177.8583
82.940880 88.267 177.7445
83.541901 88.249 177.6368
84.147285 88.231 177.5460
84.757050 88.215 177.4588
85.371231 88.199 177.3654
85.989868 88.182 177.2711
86.612984 88.165 177.1819
87.240616 88.149 177.0939
87.872803 88.132 177.0042
88.509560 88.115 176.9168
89.150940 88.098 176.8334
89.796967 88.080 176.7509
90.447670 88.063 176.6700
91.103088 88.046 176.5952
91.763260 88.029 176.5222
92.428215 88.013 176.4428
93.097992 87.996 176.3594
93.772614 87.978 176.2810
94.452133 87.959 176.2096
95.136566 87.941 176.1426
95.825966 87.924 176.0785
96.520363 87.908 176.0106
97.219788 87.891 175.9332
97.924286 87.873 175.8549
98.633881 87.854 175.7869
99.348625 87.835 175.7264
100.068542 87.817 175.6675
100.793686 87.800 175.6115
101.524078 87.783 175.5557
102.259766 87.765 175.4997
103.000778 87.746 175.4535
103.747162 87.730 175.4103
104.498962 87.714 175.3520
105.256203 87.695 175.2888
106.018929 87.675 175.2403
106.787186 87.656 175.1980
107.561012 87.638 175.1512
108.340446 87.620 175.1018
109.125526 87.601 175.0536
109.916290 87.583 175.0076
110.712791 87.564 174.9612
111.515060 87.545 174.9210
112.323143 87.527 174.8831
113.137085 87.508 174.8392
113.956924 87.487 174.8190
114.782700 87.471 174.8107
115.614464 87.457 174.7662
116.452255 87.439 174.7122
117.296112 87.419 174.6629
118.146095 87.396 174.6306
119.002228 87.377 174.6385
119.864563 87.363 174.6128
120.733154 87.343 174.5737
121.608040 87.324 174.5760
122.489258 87.308 174.5533
123.376869 87.289 174.5314
124.270905 87.270 174.5114
125.171425 87.248 174.4904
126.078468 87.229 174.5092
126.992081 87.214 174.4869
127.912323 87.195 174.4743
128.839233 87.182 174.4595
129.772842 87.160 174.3894
130.713242 87.132 174.4407
131.660431 87.124 174.4799
132.614502 87.106 174.4220
133.575485 87.081 174.4473
134.543427 87.064 174.4540
135.518387 87.043 174.4536
136.500412 87.026 174.4657
137.489548 87.007 174.4662
138.485855 86.996 174.4917
139.489380 86.984 174.4285
140.500168 86.959 174.4308
141.518295 86.944 174.4759
142.543793 86.925 174.5044
143.576721 86.914 174.5710
144.617142 86.899 174.5140
145.665100 86.870 174.5524
146.720642 86.856 174.5706
147.783844 86.829 174.5742
148.854752 86.816 174.6301
149.933411 86.799 174.5945
151.019897 86.780 174.6316
152.114243 86.766 174.6387
153.216522 86.750 174.6555
154.326797 86.736 174.6814
155.445114 86.721 174.7023
156.571533 86.705 174.7490
157.706116 86.687 174.7627
158.848923 86.665 174.8843
160.000000 86.669 174.8877
161.159424 86.636 174.7947
162.327255 86.607 174.9156
163.503540 86.597 174.9772
164.688354 86.582 174.9563
165.881760 86.558 174.9993
167.083801 86.543 175.0240
168.294571 86.515 175.1131
169.514099 86.517 175.1986
170.742462 86.498 175.1212
171.979736 86.476 175.1743
173.225967 86.454 175.2174
174.481232 86.439 175.3107
175.745605 86.421 175.3767
177.019119 86.405 175.4331
178.301880 86.377 175.4655
179.593933 86.360 175.5140
180.895340 86.334 175.5254
182.206177 86.325 175.5837
183.526520 86.302 175.6566
184.856430 86.315 175.8221
186.195984 86.294 175.8147
187.545227 86.279 175.9504
188.904266 86.230 176.1118
190.273132 86.251 176.2851
191.651932 86.207 176.0978
193.040726 86.189 176.3193
194.439575 86.178 176.3464
195.848572 86.167 176.5022
197.267761 86.145 176.5931
198.697250 86.139 176.8184
200.137085 86.118 176.7926
201.587372 86.104 177.0036
203.048157 86.097 177.0989
204.519531 86.099 177.2057
206.001556 86.084 177.3568
207.494324 86.079 177.4001
208.997925 86.060 177.5562
210.512405 86.062 177.5315
212.037857 86.070 177.7437
213.574371 86.064 177.6008
215.122025 86.063 177.8990
216.680893 86.036 177.9048
218.251053 86.042 178.0655
219.832581 86.016 178.0588
221.425583 86.038 178.0831
223.030121 86.027 178.2788
224.646286 85.996 178.4593
226.274170 86.088 178.9861
227.913849 85.998 178.3604
229.565399 85.987 178.5367
231.228928 85.998 178.4161
232.904510 85.922 178.6927
234.592224 85.970 178.2397
236.292191 85.943 178.8763
238.004456 85.933 178.9504
239.729126 85.888 178.8387
241.466309 85.916 178.8957
243.216080 85.914 179.1113
244.978516 85.879 179.1632
246.753738 85.883 179.1406
248.541809 85.884 179.3898
250.342850 85.834 179.3887
252.156937 85.873 179.4888
253.984161 85.814 179.5767
255.824646 85.864 179.7085
257.678467 85.783 179.8475
259.545685 85.842 179.8573
261.426483 85.779 -179.9292
263.320862 85.811 -179.9857
265.229004 85.770 -179.7235
267.150970 85.786 -179.7766
269.086853 85.767 -179.6048
271.036774 85.758 -179.4939
273.000824 85.746 -179.3907
274.979095 85.741 -179.3699
276.971710 85.725 -179.2195
278.978760 85.718 -179.1435
281.000336 85.709 -178.9741
283.036591 85.700 -178.9076
285.087585 85.690 -178.8290
287.153442 85.686 -178.6920
289.234283 85.673 -178.5451
291.330200 85.669 -178.4464
293.441284 85.654 -178.3102
295.567688 85.650 -178.2291
297.709503 85.642 -178.1044
299.866821 85.639 -177.9959
302.039795 85.627 -177.8342
304.228485 85.613 -177.7633
306.433044 85.616 -177.6190
308.653595 85.606 -177.4515
310.890228 85.594 -177.2910
313.143066 85.585 -177.2791
315.412231 85.587 -177.2414
317.697845 85.593 -176.9204
320.000000 85.555 -176.8137
322.318848 85.557 -176.9363
324.654510 85.596 -176.6577
327.007080 85.555 -176.1976
329.376709 85.503 -176.3573
331.763519 85.552 -176.4038
334.167603 85.548 -175.9711
336.589142 85.507 -175.9830
339.028198 85.544 -175.7831
341.484924 85.503 -175.5702
343.959473 85.514 -175.6706
346.451935 85.519 -175.2479
348.962463 85.480 -175.2779
351.491211 85.524 -175.1273
354.038239 85.479 -174.9093
356.603760 85.494 -174.8723
359.187866 85.468 -174.5549
361.790680 85.496 -174.6241
364.412354 85.463 -174.2354
367.053040 85.489 -174.3053
369.712860 85.447 -174.1213
372.391968 85.490 -173.6764
375.090454 85.421 -173.9261
377.808533 85.476 -173.3283
380.546265 85.473 -173.5146
383.303864 85.473 -173.2060
386.081451 85.442 -173.1676
388.879150 85.416 -172.7488
391.697144 85.484 -172.5600
394.535522 85.478 -172.5677
397.394501 85.458 -172.4016
400.274170 85.464 -172.2542
403.174744 85.464 -172.1132
406.096313 85.469 -171.9644
409.039062 85.460 -171.7698
412.003113 85.457 -171.6309
414.988647 85.472 -171.4037
417.995850 85.447 -171.2539
421.024811 85.470 -171.1815
424.075714 85.486 -170.9126
427.148743 85.479 -170.7960
430.244049 85.481 -170.5961
433.361786 85.483 -170.4787
436.502106 85.498 -170.2987
439.665161 85.488 -170.1303
442.851166 85.494 -170.0556
446.060242 85.502 -169.8604
449.292572 85.505 -169.6733
452.548340 85.507 -169.5270
455.827698 85.512 -169.3593
459.130798 85.514 -169.2178
462.457855 85.520 -169.0797
465.809021 85.520 -168.8711
469.184448 85.518 -168.6855
472.584381 85.532 -168.5510
476.008911 85.531 -168.4089
479.458252 85.536 -168.2169
482.932617 85.544 -168.0476
486.432159 85.544 -167.8957
489.957031 85.548 -167.7634
493.507477 85.548 -167.6292
497.083618 85.546 -167.4441
500.685699 85.541 -167.1967
504.313873 85.533 -166.8716
507.968323 85.553 -166.7406
511.649292 85.534 -166.7397
515.356934 85.590 -166.6778
519.091370 85.594 -166.3440
522.852966 85.620 -166.1653
526.641724 85.601 -165.9684
530.458008 85.618 -165.8236
534.301941 85.622 -165.6655
538.173706 85.619 -165.5212
542.073547 85.623 -165.3110
546.001648 85.638 -165.1265
549.958191 85.648 -164.9410
553.943420 85.655 -164.7396
557.957520 85.662 -164.5709
562.000671 85.671 -164.3918
566.073181 85.675 -164.2122
570.175171 85.680 -164.0329
574.306885 85.686 -163.8585
578.468567 85.689 -163.7091
582.660400 85.694 -163.4945
586.882568 85.695 -163.2667
591.135376 85.685 -163.0784
595.419006 85.684 -162.8469
599.733643 85.674 -162.5390
604.079590 85.671 -162.1562
608.456970 85.678 -161.6898
612.866089 85.706 -161.1897
617.307190 85.758 -160.7983
621.780457 85.816 -160.4908
626.286133 85.868 -160.3793
630.824463 85.914 -160.2851
635.395691 85.947 -160.2255
640.000000 85.980 -160.1956
644.637695 86.000 -160.1059
649.309021 86.017 -160.0839
654.014160 86.034 -160.0497
658.753418 86.038 -160.1456
663.527039 86.008 -160.0704
668.335205 86.011 -160.3556
673.178284 86.038 -160.0193
678.056396 85.955 -159.6669
682.969849 85.924 -159.4073
687.918945 85.902 -158.7678
692.903870 85.917 -158.1579
697.924927 85.947 -157.5975
702.982422 85.997 -157.1648
708.076477 86.040 -156.8148
713.207520 86.087 -156.5200
718.375732 86.128 -156.2651
723.581360 86.165 -156.0332
728.824707 86.206 -155.7908
734.106079 86.241 -155.5814
739.425720 86.276 -155.3754
744.783936 86.310 -155.1608
750.180908 86.345 -154.9500
755.617065 86.382 -154.7419
761.092529 86.416 -154.5405
766.607727 86.450 -154.3313
772.162903 86.484 -154.1248
777.758301 86.523 -153.9130
783.394287 86.555 -153.7095
789.071045 86.591 -153.4959
794.789001 86.630 -153.3036
800.548340 86.660 -153.0477
806.349487 86.698 -152.9024
812.192627 86.739 -152.6616
818.078125 86.774 -152.4657
824.006226 86.816 -152.2703
829.977295 86.856 -152.0682
835.991699 86.895 -151.8693
842.049622 86.936 -151.6594
848.151428 86.979 -151.4820
854.297485 87.020 -151.2819
860.488098 87.063 -151.0921
866.723572 87.107 -150.9071
873.004211 87.152 -150.7256
879.330322 87.196 -150.5475
885.702332 87.243 -150.3775
892.120483 87.287 -150.1815
898.585144 87.335 -150.0144
905.096680 87.384 -149.8500
911.655396 87.430 -149.6918
918.261597 87.484 -149.5269
924.915710 87.534 -149.3895
931.618042 87.585 -149.2332
938.368896 87.638 -149.0734
945.168762 87.683 -148.9419
952.017822 87.737 -148.8315
958.916504 87.789 -148.7050
965.865234 87.846 -148.5876
972.864319 87.898 -148.4727
979.914062 87.953 -148.3589
987.014954 88.007 -148.2520
994.167236 88.063 -148.1596
1001.371399 88.118 -148.0641
1008.627747 88.177 -147.9871
1015.936646 88.230 -147.9185
1023.298584 88.287 -147.8382
1030.713867 88.345 -147.7946
1038.182739 88.400 -147.7279
1045.705933 88.456 -147.6708
1053.283447 88.517 -147.6331
1060.916016 88.575 -147.5991
1068.603882 88.639 -147.5392
1076.347412 88.681 -147.5900
1084.147095 88.742 -147.5317
1092.003296 88.802 -147.5106
1099.916382 88.859 -147.5407
1107.886841 88.916 -147.5280
1115.915039 88.973 -147.5511
1124.001343 89.030 -147.5731
1132.146362 89.085 -147.5913
1140.350342 89.141 -147.6385
1148.613770 89.199 -147.6722
1156.937134 89.253 -147.7145
1165.320801 89.307 -147.7573
1173.765137 89.363 -147.8091
1182.270752 89.421 -147.8824
1190.838013 89.471 -147.9680
1199.467285 89.523 -148.0245
1208.159180 89.585 -148.1078
1216.913940 89.632 -148.1954
1225.732178 89.686 -148.2741
1234.614380 89.737 -148.3724
1243.560913 89.788 -148.4847
1252.572266 89.839 -148.5702
1261.648926 89.891 -148.6851
1270.791382 89.942 -148.7999
1280.000000 89.991 -148.9196
1289.275391 90.042 -149.0372
1298.618042 90.091 -149.1705
1308.028320 90.139 -149.3054
1317.506836 90.182 -149.4431
1327.054077 90.233 -149.5908
1336.670410 90.278 -149.7355
1346.356567 90.323 -149.8792
1356.112793 90.366 -150.0318
1365.939697 90.412 -150.1815
1375.837891 90.458 -150.3340
1385.807739 90.500 -150.4878
1395.849854 90.543 -150.6650
1405.964844 90.584 -150.8314
1416.152954 90.626 -151.0120
1426.415039 90.667 -151.1768
1436.751465 90.707 -151.3543
1447.162720 90.745 -151.5253
1457.649414 90.784 -151.7244
1468.212158 90.821 -151.8846
1478.851440 90.857 -152.0824
1489.567871 90.892 -152.2721
1500.361816 90.929 -152.4716
1511.234131 90.965 -152.6574
1522.185059 90.997 -152.8567
1533.215454 91.030 -153.0468
1544.325806 91.063 -153.2365
1555.516602 91.093 -153.4331
1566.788574 91.123 -153.6264
1578.142090 91.154 -153.8265
1589.578003 91.183 -154.0235
1601.096680 91.212 -154.2197
1612.698975 91.239 -154.4131
1624.385254 91.266 -154.6059
1636.156250 91.294 -154.7974
1648.012451 91.319 -154.9855
1659.954590 91.344 -155.1895
1671.983398 91.369 -155.3824
1684.099243 91.392 -155.5684
1696.302856 91.414 -155.7569
1708.594971 91.439 -155.9377
1720.976196 91.460 -156.1321
1733.447144 91.482 -156.3118
1746.008423 91.504 -156.5053
1758.660645 91.525 -156.6944
1771.404663 91.545 -156.8626
1784.240967 91.566 -157.0443
1797.170288 91.584 -157.2272
1810.193359 91.602 -157.3985
1823.310791 91.620 -157.5714
1836.523193 91.637 -157.7457
1849.831421 91.656 -157.9184
1863.236084 91.670 -158.0799
1876.737793 91.688 -158.2410
1890.337524 91.702 -158.4032
1904.035645 91.719 -158.5403
1917.833008 91.732 -158.6923
1931.730469 91.747 -158.8437
1945.728638 91.762 -158.9923
1959.828125 91.777 -159.1299
1974.029907 91.791 -159.2527
1988.334473 91.806 -159.3914
2002.742798 91.821 -159.5159
2017.255493 91.835 -159.6468
2031.873291 91.850 -159.7702
2046.597168 91.863 -159.8791
2061.427734 91.879 -159.9927
2076.365479 91.892 -160.0872
2091.411865 91.906 -160.1968
2106.566895 91.922 -160.2944
2121.832031 91.937 -160.3968
2137.207764 91.953 -160.4833
2152.694824 91.968 -160.5767
2168.294189 91.986 -160.6670
2184.006592 92.002 -160.7389
2199.832764 92.020 -160.8247
2215.773682 92.038 -160.8939
2231.830078 92.055 -160.9721
2248.002686 92.077 -161.0540
2264.292725 92.095 -161.1179
2280.700684 92.116 -161.1866
2297.227539 92.136 -161.2670
2313.874268 92.157 -161.3221
2330.641602 92.179 -161.3913
2347.530273 92.202 -161.4449
2364.541504 92.224 -161.5132
2381.676025 92.248 -161.5848
2398.934570 92.272 -161.6382
2416.318359 92.296 -161.6905
2433.827881 92.324 -161.7525
2451.464355 92.350 -161.8143
2469.228760 92.379 -161.8728
2487.121826 92.406 -161.9388
2505.144531 92.438 -161.9930
2523.297852 92.468 -162.0657
2541.582764 92.501 -162.1323
2560.000000 92.535 -162.1939
2578.550781 92.567 -162.2796
2597.236084 92.599 -162.3492
2616.056641 92.636 -162.4234
2635.013672 92.671 -162.5076
2654.108154 92.708 -162.5926
2673.340820 92.745 -162.6736
2692.713135 92.783 -162.7657
2712.225586 92.823 -162.8614
2731.879395 92.865 -162.9684
2751.675781 92.907 -163.0680
2771.615479 92.949 -163.1839
2791.699707 92.996 -163.3172
2811.929688 93.041 -163.4495
2832.305908 93.087 -163.5888
2852.830078 93.133 -163.7333
2873.502930 93.179 -163.8997
2894.325439 93.228 -164.0675
2915.298828 93.276 -164.2476
2936.424316 93.323 -164.4383
2957.702881 93.373 -164.6362
2979.135742 93.421 -164.8327
3000.723633 93.471 -165.0639
3022.468262 93.522 -165.2850
3044.370117 93.572 -165.5221
3066.430908 93.625 -165.7683
3088.651611 93.676 -166.0287
3111.033203 93.729 -166.3014
3133.577148 93.780 -166.5780
3156.284180 93.834 -166.8667
3179.156006 93.888 -167.1670
3202.193359 93.942 -167.4794
3225.397949 93.997 -167.8145
3248.770508 94.051 -168.1567
3272.312500 94.107 -168.5082
3296.024902 94.162 -168.8771
3319.909180 94.218 -169.2594
3343.966797 94.274 -169.6573
3368.198486 94.329 -170.0741
3392.605713 94.387 -170.5008
3417.189941 94.444 -170.9542
3441.952393 94.500 -171.4231
3466.894287 94.558 -171.9082
3492.016846 94.614 -172.4203
3517.321289 94.672 -172.9516
3542.809326 94.730 -173.5017
3568.481934 94.787 -174.0628
3594.340576 94.844 -174.6696
3620.386719 94.901 -175.2927
3646.621582 94.956 -175.9479
3673.046387 95.011 -176.6253
3699.662842 95.064 -177.3326
3726.472168 95.116 -178.0599
3753.475586 95.165 -178.8312
3780.675049 95.216 -179.6404
3808.071289 95.264 179.5199
3835.666016 95.307 178.6558
3863.460938 95.351 177.7559
3891.457275 95.389 176.8270
3919.656250 95.423 175.8390
3948.059814 95.453 174.8235
3976.668945 95.479 173.7764
4005.485596 95.499 172.6912
4034.510986 95.513 171.5771
4063.746582 95.523 170.4153
4093.194336 95.526 169.2252
4122.855469 95.518 168.0007
4152.730957 95.506 166.7640
4182.823730 95.481 165.4721
4213.133789 95.448 164.1833
4243.664062 95.404 162.8534
4274.415527 95.352 161.5164
4305.389648 95.288 160.1756
4336.588379 95.212 158.8358
4368.013184 95.123 157.4901
4399.665527 95.023 156.1601
4431.547363 94.912 154.8387
4463.660156 94.791 153.5426
4496.005371 94.656 152.2703
4528.585449 94.509 151.0415
4561.401367 94.354 149.8299
4594.455078 94.187 148.6849
4627.748535 94.011 147.5728
4661.283203 93.825 146.5150
4695.060547 93.631 145.5049
4729.083008 93.427 144.5842
4763.352051 93.213 143.7117
4797.869141 92.997 142.9067
4832.636719 92.776 142.1699
4867.655762 92.546 141.5035
4902.928711 92.312 140.8920
4938.457520 92.076 140.3745
4974.243652 91.835 139.9172
5010.289062 91.595 139.5539
5046.595703 91.354 139.2473
5083.165527 91.110 139.0283
5120.000000 90.865 138.8575
5157.101562 90.620 138.7597
5194.472168 90.378 138.7390
5232.113281 90.135 138.7652
5270.027344 89.896 138.9051
5308.216309 89.662 139.0765
5346.681641 89.426 139.2997
5385.426270 89.200 139.5918
5424.451172 88.977 139.9353
5463.758789 88.751 140.3135
5503.351562 88.537 140.7506
5543.230957 88.325 141.2466
5583.399414 88.114 141.7482
5623.859375 87.909 142.3305
5664.611816 87.706 142.9298
5705.660156 87.508 143.5662
5747.005859 87.308 144.2546
5788.650879 87.115 144.9464
5830.597656 86.920 145.7338
5872.848633 86.725 146.5518
5915.405762 86.538 147.3951
5958.271484 86.342 148.3119
6001.447266 86.143 149.3223
6044.936523 85.933 150.4401
6088.740234 85.696 151.8197
6132.861816 85.455 153.9785
6177.303223 85.428 157.1014
6222.066406 85.638 158.4665
6267.154297 85.650 158.6140
6312.568359 85.561 159.0949
6358.312012 85.445 159.9181
6404.386719 85.353 160.9847
6450.795898 85.249 162.1200
6497.541016 85.154 163.4420
6544.625000 85.080 164.8713
6592.049805 85.031 166.3756
6639.818359 84.983 167.9225
6687.933594 84.974 169.5035
6736.396973 84.956 171.1368
6785.211426 84.976 172.9542
6834.379883 85.041 174.9021
6883.904785 85.173 176.9016
6933.788574 85.377 178.6498
6984.033691 85.629 179.8974
7034.642578 85.872 -179.3826
7085.618652 86.096 -178.9461
7136.963867 86.274 -178.5966
7188.681152 86.442 -178.2838
7240.773438 86.615 -177.8935
7293.243164 86.796 -177.5294
7346.092773 86.987 -177.2568
7399.325684 87.193 -176.9878
7452.944336 87.420 -176.8738
7506.951172 87.655 -176.9148
7561.350098 87.902 -177.0907
7616.142578 88.172 -177.2483
7671.332031 88.492 -177.7706
7726.921875 88.828 -178.6538
7782.914551 89.168 -179.9957
7839.312500 89.506 178.1561
7896.119629 89.832 175.8672
7953.337891 90.123 173.0146
8010.971191 90.358 169.6415
8069.021973 90.522 165.7440
8127.493164 90.592 161.5043
8186.388672 90.555 156.9010
8245.710938 90.386 152.1794
8305.461914 90.083 147.6488
8365.647461 89.660 143.3698
8426.267578 89.134 139.6092
8487.328125 88.539 136.4706
8548.831055 87.889 133.9667
8610.779297 87.211 132.1041
8673.176758 86.518 130.7273
8736.026367 85.835 129.9569
8799.331055 85.147 129.6288
8863.094727 84.489 129.6403
8927.320312 83.842 130.1586
8992.010742 83.215 130.9265
9057.170898 82.611 131.9865
9122.802734 82.040 133.4351
9188.910156 81.476 134.9794
9255.497070 80.938 136.7566
9322.566406 80.432 138.8619
9390.121094 79.938 141.0834
9458.166016 79.459 143.5491
9526.704102 79.041 146.1874
9595.738281 78.627 148.9644
9665.273438 78.217 151.9383
9735.311523 77.839 155.2224
9805.857422 77.500 158.5655
9876.915039 77.188 162.3736
9948.487305 76.893 166.4881
10020.578125 76.641 170.8373
10093.191406 76.471 175.1833
10166.331055 76.380 -179.8469
10240.000000 76.385 -174.7173
10314.203125 76.523 -169.3622
10388.944336 76.806 -164.1613
10464.226562 77.253 -159.1924
10540.054688 77.826 -155.1611
10616.432617 78.522 -152.1095
10693.363281 79.285 -150.3179
10770.852539 80.035 -149.6623
10848.902344 80.706 -150.3317
10927.517578 81.281 -151.7830
11006.703125 81.725 -153.9225
11086.461914 82.034 -156.0509
11166.798828 82.234 -158.3630
11247.718750 82.344 -160.6040
11329.223633 82.385 -162.5848
11411.320312 82.393 -164.4250
11494.011719 82.356 -166.1791
11577.301758 82.309 -167.6235
11661.195312 82.214 -169.2127
11745.697266 82.117 -170.4705
11830.811523 81.995 -171.8879
11916.542969 81.843 -173.1044
12002.894531 81.664 -174.3589
12089.873047 81.466 -175.5593
12177.480469 81.230 -176.6051
12265.723633 80.982 -177.5645
12354.606445 80.702 -178.4099
12444.132812 80.387 -179.0572
12534.308594 80.061 -179.4389
12625.136719 79.720 -179.4890
12716.624023 79.398 -179.2654
12808.773438 79.101 -179.1069
12901.591797 78.797 -178.6822
12995.082031 78.569 -178.3596
13089.250000 78.249 -178.0426
13184.099609 77.954 -177.7631
13279.636719 77.646 -177.0492
13375.867188 77.308 -176.7759
13472.793945 76.989 -175.8519
13570.422852 76.652 -174.9193
13668.759766 76.325 -173.8777
13767.809570 76.010 -172.8654
13867.577148 75.733 -171.4786
13968.067383 75.451 -170.2400
14069.285156 75.198 -168.7806
14171.237305 74.982 -167.3788
14273.927734 74.676 -165.9793
14377.362305 74.445 -164.3694
14481.546875 74.227 -162.8450
14586.486328 73.972 -161.2363
14692.185547 73.763 -159.4803
14798.651367 73.549 -157.9797
14905.888672 73.344 -155.9841
15013.902344 73.129 -153.9788
15122.700195 72.953 -151.7938
15232.285156 72.771 -149.5790
15342.664062 72.625 -147.1958
15453.843750 72.584 -144.6697
15565.829102 72.517 -141.9879
15678.625000 72.552 -139.3212
15792.239258 72.632 -137.0135
15906.675781 72.795 -135.2082
16021.942383 72.910 -133.5961
16138.043945 73.092 -132.3912
16254.986328 73.198 -130.7041
16372.777344 73.310 -129.4610
16491.421875 73.446 -127.9114
16610.923828 73.585 -126.8734
16731.294922 73.815 -125.0057
16852.535156 74.196 -123.7578
16974.656250 74.682 -123.4178
17097.662109 75.222 -124.4126
17221.558594 75.595 -127.3895
17346.353516 75.719 -130.2554
17472.052734 75.840 -131.7601
17598.662109 76.256 -133.3303
17726.189453 76.841 -138.5441
17854.640625 76.912 -147.1063
17984.021484 76.414 -156.0063
18114.341797 75.443 -163.1641
18245.605469 74.185 -168.0002
18377.820312 72.868 -170.5598
18510.994141 71.569 -171.6250
18645.132812 70.302 -170.3661
18780.242188 69.150 -168.8342
18916.332031 68.114 -166.1659
19053.408203 67.145 -163.4231
19191.476562 66.163 -160.3279
19330.546875 65.516 -156.1848
19470.623047 64.476 -152.3289
19611.714844 63.834 -149.9382
19753.830078 62.797 -146.3063
19896.974609 61.736 -143.7482
