* Measurement data measured by REW V5.20.4
* Source: Microphone (BGVP HiFi Audio-T01s), MICROPHONE (Master Volume), R, volume: 0.260
* Format: 256k Log Swept Sine, 1 sweep at -6.0 dBFS with no timing reference
* Dated: 30 May, 2023 12:25:09 AM
* REW Settings:
*  C-weighting compensation: Off
*  Target level: 75.0 dB
* Note: 
* Measurement: HA-FDX1 White L
* Smoothing: None
* Frequency Step: 1/96 octave
* Start Frequency: 0.366 Hz
*
* Freq(Hz) SPL(dB) Phase(degrees)
0.366299 35.804 178.6598
0.368954 35.814 178.0796
0.371627 35.825 177.4712
0.374320 35.835 176.8342
0.377033 35.846 176.1687
0.379765 35.856 175.4743
0.382517 35.867 174.7508
0.385289 35.878 173.9982
0.388081 35.889 173.2163
0.390893 35.900 172.4048
0.393725 35.911 171.5637
0.396578 35.922 170.6928
0.399452 35.934 169.7920
0.402347 35.945 168.8612
0.405262 35.956 167.9003
0.408199 35.968 166.9091
0.411157 35.980 165.8877
0.414136 35.991 164.8359
0.417137 36.003 163.7536
0.420160 36.015 162.6409
0.423205 36.027 161.4977
0.426272 36.039 160.3239
0.429361 36.051 159.1196
0.432472 36.063 157.8848
0.435606 36.075 156.6195
0.438762 36.088 155.3238
0.441942 36.100 153.9976
0.445144 36.113 152.6412
0.448370 36.126 151.2545
0.451619 36.138 149.8377
0.454892 36.151 148.3910
0.458188 36.164 146.9144
0.461508 36.177 145.4082
0.464852 36.190 143.8725
0.468221 36.203 142.3076
0.471614 36.217 140.7137
0.475031 36.230 139.0910
0.478474 36.244 137.4400
0.481941 36.257 135.7608
0.485433 36.271 134.0538
0.488951 36.285 132.3194
0.492494 36.299 130.5580
0.496063 36.313 128.7701
0.499658 36.327 126.9559
0.503278 36.341 125.1162
0.506925 36.355 123.2514
0.510599 36.370 121.3619
0.514299 36.384 119.4485
0.518025 36.399 117.5118
0.521779 36.413 115.5524
0.525560 36.428 113.5710
0.529369 36.443 111.5684
0.533205 36.458 109.5452
0.537069 36.473 107.5025
0.540960 36.489 105.4410
0.544880 36.504 103.3617
0.548829 36.520 101.2655
0.552806 36.535 99.1533
0.556812 36.551 97.0263
0.560847 36.567 94.8856
0.564911 36.583 92.7323
0.569004 36.599 90.5676
0.573128 36.615 88.3928
0.577281 36.631 86.2092
0.581464 36.648 84.0182
0.585677 36.664 81.8212
0.589921 36.681 79.6198
0.594196 36.697 77.4155
0.598502 36.714 75.2099
0.602839 36.731 73.0047
0.607207 36.748 70.8018
0.611608 36.766 68.6029
0.616040 36.783 66.4100
0.620504 36.801 64.2250
0.625000 36.818 62.0500
0.629529 36.836 59.8873
0.634091 36.854 57.7389
0.638686 36.872 55.6073
0.643314 36.890 53.4948
0.647976 36.908 51.4040
0.652671 36.927 49.3375
0.657401 36.945 47.2978
0.662164 36.964 45.2879
0.666963 36.983 43.3106
0.671796 37.002 41.3688
0.676664 37.021 39.4658
0.681567 37.040 37.6047
0.686506 37.059 35.7888
0.691481 37.079 34.0216
0.696492 37.099 32.3065
0.701539 37.118 30.6475
0.706622 37.138 29.0481
0.711743 37.158 27.5124
0.716900 37.179 26.0444
0.722095 37.199 24.6483
0.727328 37.220 23.3285
0.732599 37.243 22.1296
0.737907 37.354 22.1231
0.743254 37.472 22.1048
0.748640 37.597 22.0745
0.754065 37.729 22.0326
0.759530 37.868 21.9790
0.765033 38.014 21.9139
0.770577 38.167 21.8375
0.776161 38.326 21.7499
0.781785 38.492 21.6514
0.787451 38.665 21.5421
0.793157 38.845 21.4222
0.798904 39.031 21.2920
0.804694 39.223 21.1516
0.810525 39.421 21.0014
0.816398 39.626 20.8416
0.822314 39.837 20.6725
0.828273 40.054 20.4944
0.834275 40.276 20.3077
0.840320 40.505 20.1126
0.846410 40.738 19.9096
0.852543 40.978 19.6990
0.858721 41.222 19.4812
0.864944 41.472 19.2567
0.871211 41.726 19.0259
0.877525 41.985 18.7893
0.883883 42.248 18.5474
0.890288 42.516 18.3007
0.896740 42.787 18.0497
0.903238 43.063 17.7950
0.909783 43.342 17.5373
0.916376 43.624 17.2771
0.923016 43.909 17.0151
0.929705 44.196 16.7521
0.936442 44.486 16.4886
0.943228 44.779 16.2254
0.950063 45.072 15.9634
0.956947 45.367 15.7034
0.963882 45.663 15.4461
0.970866 45.960 15.1925
0.977902 46.257 14.9435
0.984988 46.553 14.7001
0.992126 46.849 14.4632
0.999315 47.144 14.2338
1.006557 47.437 14.0131
1.013850 47.728 13.8022
1.021197 48.017 13.6022
1.028597 48.302 13.4143
1.036051 48.584 13.2399
1.043558 48.861 13.0801
1.051121 49.133 12.9363
1.058737 49.400 12.8099
1.066409 49.661 12.7024
1.074137 49.915 12.6153
1.081921 50.162 12.5501
1.089761 50.400 12.5084
1.097658 50.629 12.4919
1.105612 50.852 12.3487
1.113623 51.071 12.1886
1.121693 51.286 12.0314
1.129821 51.499 11.8771
1.138009 51.709 11.7255
1.146255 51.916 11.5767
1.154561 52.119 11.4304
1.162928 52.320 11.2866
1.171355 52.518 11.1452
1.179843 52.713 11.0060
1.188393 52.906 10.8689
1.197004 53.095 10.7339
1.205678 53.283 10.6007
1.214415 53.468 10.4692
1.223215 53.650 10.3393
1.232079 53.830 10.2108
1.241007 54.009 10.0835
1.250000 54.185 9.9572
1.259058 54.359 9.8318
1.268182 54.531 9.7070
1.277371 54.702 9.5827
1.286628 54.871 9.4587
1.295951 55.039 9.3346
1.305342 55.206 9.2103
1.314801 55.372 9.0855
1.324329 55.536 8.9600
1.333925 55.701 8.8335
1.343592 55.864 8.7057
1.353328 56.028 8.5764
1.363135 56.191 8.4451
1.373013 56.354 8.3116
1.382962 56.518 8.1756
1.392983 56.683 8.0367
1.403078 56.848 7.8946
1.413245 57.015 7.7488
1.423486 57.182 7.5991
1.433801 57.352 7.4449
1.444191 57.524 7.2859
1.454656 57.697 7.1217
1.465197 57.874 6.9518
1.475815 58.051 6.7778
1.486509 58.227 6.6018
1.497281 58.402 6.4236
1.508131 58.576 6.2432
1.519059 58.748 6.0606
1.530067 58.919 5.8758
1.541154 59.090 5.6887
1.552322 59.259 5.4994
1.563571 59.427 5.3079
1.574901 59.595 5.1141
1.586314 59.761 4.9180
1.597809 59.927 4.7196
1.609387 60.092 4.5188
1.621049 60.256 4.3158
1.632796 60.419 4.1104
1.644628 60.581 3.9027
1.656546 60.743 3.6926
1.668550 60.905 3.4801
1.680641 61.066 3.2652
1.692819 61.227 3.0479
1.705086 61.387 2.8282
1.717442 61.547 2.6061
1.729887 61.707 2.3816
1.742423 61.867 2.1546
1.755049 62.026 1.9251
1.767767 62.186 1.6932
1.780577 62.346 1.4589
1.793480 62.507 1.2220
1.806476 62.668 0.9827
1.819566 62.829 0.7409
1.832752 62.991 0.4966
1.846033 63.153 0.2493
1.859410 63.314 -0.0011
1.872884 63.474 -0.2547
1.886456 63.633 -0.5115
1.900126 63.791 -0.7715
1.913895 63.948 -1.0345
1.927764 64.105 -1.3007
1.941733 64.261 -1.5700
1.955804 64.417 -1.8424
1.969976 64.571 -2.1178
1.984251 64.725 -2.3962
1.998630 64.879 -2.6777
2.013113 65.031 -2.9620
2.027701 65.184 -3.2493
2.042394 65.336 -3.5395
2.057194 65.487 -3.8325
2.072102 65.638 -4.1283
2.087117 65.789 -4.4269
2.102241 65.939 -4.7282
2.117475 66.090 -5.0321
2.132819 66.240 -5.3386
2.148274 66.390 -5.6477
2.163841 66.540 -5.9592
2.179522 66.690 -6.2731
2.195315 66.840 -6.5894
2.211223 66.990 -6.9084
2.227247 67.139 -7.2310
2.243386 67.288 -7.5570
2.259643 67.435 -7.8865
2.276017 67.582 -8.2193
2.292510 67.728 -8.5556
2.309123 67.873 -8.8951
2.325855 68.018 -9.2379
2.342710 68.161 -9.5838
2.359686 68.305 -9.9329
2.376785 68.447 -10.2851
2.394008 68.589 -10.6403
2.411356 68.730 -10.9984
2.428830 68.871 -11.3594
2.446430 69.012 -11.7231
2.464158 69.152 -12.0896
2.482014 69.291 -12.4587
2.500000 69.431 -12.8302
2.518116 69.570 -13.2043
2.536363 69.708 -13.5806
2.554743 69.847 -13.9591
2.573256 69.986 -14.3400
2.591902 70.123 -14.7241
2.610684 70.260 -15.1116
2.629603 70.396 -15.5025
2.648658 70.531 -15.8966
2.667851 70.665 -16.2939
2.687183 70.798 -16.6943
2.706656 70.931 -17.0976
2.726269 71.062 -17.5039
2.746025 71.194 -17.9130
2.765924 71.324 -18.3248
2.785967 71.454 -18.7393
2.806155 71.583 -19.1562
2.826490 71.711 -19.5755
2.846972 71.839 -19.9971
2.867602 71.967 -20.4208
2.888382 72.094 -20.8465
2.909312 72.221 -21.2740
2.930394 72.347 -21.7033
2.951629 72.473 -22.1349
2.973018 72.598 -22.5696
2.994561 72.721 -23.0071
3.016261 72.844 -23.4474
3.038118 72.966 -23.8903
3.060134 73.087 -24.3358
3.082309 73.207 -24.7837
3.104645 73.326 -25.2338
3.127142 73.445 -25.6861
3.149803 73.562 -26.1404
3.172627 73.679 -26.5965
3.195618 73.795 -27.0543
3.218774 73.911 -27.5136
3.242099 74.026 -27.9742
3.265593 74.141 -28.4360
3.289256 74.255 -28.8988
3.313092 74.368 -29.3627
3.337100 74.481 -29.8288
3.361282 74.592 -30.2969
3.385639 74.702 -30.7669
3.410173 74.811 -31.2387
3.434884 74.919 -31.7120
3.459775 75.027 -32.1867
3.484846 75.133 -32.6627
3.510098 75.239 -33.1397
3.535534 75.343 -33.6175
3.561154 75.447 -34.0961
3.586959 75.551 -34.5751
3.612952 75.653 -35.0544
3.639133 75.755 -35.5337
3.665504 75.857 -36.0128
3.692065 75.958 -36.4924
3.718820 76.058 -36.9727
3.745768 76.156 -37.4537
3.772911 76.253 -37.9352
3.800251 76.350 -38.4170
3.827789 76.445 -38.8990
3.855527 76.540 -39.3810
3.883466 76.633 -39.8627
3.911607 76.726 -40.3441
3.939952 76.819 -40.8249
3.968503 76.910 -41.3049
3.997260 77.002 -41.7838
4.026226 77.092 -42.2616
4.055401 77.183 -42.7382
4.084789 77.272 -43.2140
4.114388 77.359 -43.6888
4.144203 77.446 -44.1625
4.174234 77.532 -44.6352
4.204482 77.617 -45.1066
4.234950 77.702 -45.5768
4.265638 77.786 -46.0456
4.296548 77.869 -46.5130
4.327683 77.951 -46.9788
4.359043 78.034 -47.4430
4.390630 78.116 -47.9055
4.422447 78.198 -48.3658
4.454494 78.279 -48.8237
4.486773 78.359 -49.2791
4.519286 78.438 -49.7323
4.552034 78.516 -50.1833
4.585020 78.594 -50.6323
4.618245 78.672 -51.0794
4.651711 78.749 -51.5249
4.685419 78.826 -51.9688
4.719372 78.903 -52.4114
4.753570 78.979 -52.8528
4.788016 79.056 -53.2924
4.822712 79.132 -53.7288
4.857660 79.208 -54.1622
4.892860 79.283 -54.5931
4.928316 79.358 -55.0219
4.964029 79.432 -55.4490
5.000000 79.507 -55.8750
5.036232 79.581 -56.3002
5.072727 79.655 -56.7254
5.109486 79.730 -57.1509
5.146511 79.805 -57.5768
5.183805 79.879 -58.0006
5.221369 79.954 -58.4222
5.259205 80.028 -58.8424
5.297316 80.102 -59.2618
5.335702 80.176 -59.6810
5.374367 80.250 -60.1007
5.413311 80.324 -60.5216
5.452538 80.398 -60.9445
5.492050 80.473 -61.3702
5.531847 80.547 -61.7975
5.571934 80.622 -62.2247
5.612310 80.696 -62.6525
5.652979 80.771 -63.0812
5.693943 80.845 -63.5116
5.735204 80.919 -63.9441
5.776763 80.994 -64.3793
5.818624 81.068 -64.8180
5.860788 81.142 -65.2607
5.903258 81.216 -65.7068
5.946035 81.290 -66.1556
5.989123 81.364 -66.6072
6.032523 81.437 -67.0617
6.076237 81.511 -67.5193
6.120268 81.584 -67.9801
6.164618 81.657 -68.4443
6.209289 81.729 -68.9120
6.254284 81.801 -69.3835
6.299605 81.873 -69.8592
6.345255 81.944 -70.3387
6.391235 82.015 -70.8217
6.437549 82.085 -71.3078
6.484198 82.155 -71.7966
6.531185 82.224 -72.2878
6.578513 82.292 -72.7809
6.626183 82.360 -73.2762
6.674199 82.427 -73.7750
6.722563 82.493 -74.2768
6.771278 82.559 -74.7810
6.820345 82.624 -75.2868
6.869768 82.689 -75.7936
6.919549 82.752 -76.3007
6.969691 82.815 -76.8072
7.020196 82.878 -77.3146
7.071068 82.939 -77.8232
7.122308 82.999 -78.3324
7.173919 83.059 -78.8417
7.225904 83.119 -79.3504
7.278266 83.177 -79.8577
7.331007 83.236 -80.3632
7.384131 83.293 -80.8671
7.437639 83.350 -81.3700
7.491535 83.406 -81.8715
7.545822 83.462 -82.3715
7.600502 83.517 -82.8698
7.655579 83.571 -83.3660
7.711054 83.626 -83.8599
7.766932 83.680 -84.3513
7.823214 83.734 -84.8402
7.879904 83.787 -85.3268
7.937005 83.840 -85.8113
7.994520 83.892 -86.2940
8.052452 83.945 -86.7749
8.110803 83.997 -87.2537
8.169578 84.049 -87.7299
8.228777 84.101 -88.2036
8.288406 84.152 -88.6754
8.348468 84.204 -89.1454
8.408964 84.255 -89.6141
8.469899 84.306 -90.0814
8.531276 84.357 -90.5466
8.593097 84.408 -91.0097
8.655366 84.459 -91.4711
8.718086 84.509 -91.9307
8.781260 84.560 -92.3890
8.844893 84.610 -92.8457
8.908987 84.660 -93.3005
8.973545 84.710 -93.7534
9.038571 84.760 -94.2044
9.104069 84.809 -94.6535
9.170040 84.859 -95.1007
9.236490 84.908 -95.5458
9.303422 84.958 -95.9885
9.370838 85.007 -96.4291
9.438744 85.056 -96.8678
9.507140 85.105 -97.3046
9.576033 85.154 -97.7394
9.645425 85.203 -98.1715
9.715320 85.252 -98.6014
9.785721 85.300 -99.0296
9.856632 85.349 -99.4569
9.928058 85.398 -99.8833
10.000000 85.447 -100.3076
10.072464 85.497 -100.7303
10.145453 85.546 -101.1523
10.218971 85.595 -101.5744
10.293022 85.644 -101.9972
10.367610 85.693 -102.4195
10.442738 85.742 -102.8416
10.518411 85.791 -103.2639
10.594631 85.839 -103.6872
10.671404 85.888 -104.1118
10.748734 85.936 -104.5372
10.826623 85.984 -104.9632
10.905077 86.031 -105.3897
10.984100 86.078 -105.8164
11.063695 86.125 -106.2437
11.143867 86.171 -106.6716
11.224621 86.216 -107.0994
11.305959 86.260 -107.5261
11.387886 86.304 -107.9511
11.470407 86.347 -108.3752
11.553527 86.390 -108.7979
11.637249 86.432 -109.2185
11.721577 86.473 -109.6359
11.806517 86.514 -110.0502
11.892071 86.554 -110.4615
11.978246 86.593 -110.8697
12.065045 86.633 -111.2749
12.152473 86.672 -111.6765
12.240536 86.710 -112.0743
12.329235 86.748 -112.4689
12.418578 86.786 -112.8614
12.508568 86.824 -113.2520
12.599211 86.862 -113.6394
12.690510 86.900 -114.0249
12.782471 86.938 -114.4097
12.875097 86.975 -114.7947
12.968395 87.013 -115.1785
13.062370 87.050 -115.5619
13.157025 87.087 -115.9462
13.252366 87.124 -116.3317
13.348398 87.161 -116.7178
13.445127 87.198 -117.1049
13.542556 87.234 -117.4934
13.640691 87.270 -117.8835
13.739536 87.305 -118.2749
13.839099 87.341 -118.6676
13.939383 87.375 -119.0618
14.040393 87.409 -119.4576
14.142136 87.443 -119.8547
14.244616 87.476 -120.2530
14.347837 87.508 -120.6526
14.451808 87.539 -121.0536
14.556532 87.570 -121.4554
14.662014 87.601 -121.8576
14.768262 87.630 -122.2605
14.875278 87.658 -122.6639
14.983070 87.686 -123.0660
15.091644 87.713 -123.4664
15.201005 87.739 -123.8659
15.311157 87.764 -124.2626
15.422109 87.788 -124.6544
15.533863 87.812 -125.0423
15.646428 87.834 -125.4254
15.759809 87.857 -125.8026
15.874010 87.880 -126.1727
15.989040 87.902 -126.5369
16.104904 87.924 -126.8962
16.221605 87.948 -127.2498
16.339155 87.971 -127.5979
16.457554 87.995 -127.9446
16.576813 88.021 -128.2913
16.696936 88.047 -128.6363
16.817928 88.074 -128.9846
16.939798 88.101 -129.3391
17.062551 88.130 -129.6977
17.186193 88.158 -130.0624
17.310732 88.186 -130.4353
17.436172 88.213 -130.8155
17.562521 88.240 -131.2000
17.689787 88.265 -131.5888
17.817974 88.289 -131.9819
17.947090 88.312 -132.3728
18.077143 88.333 -132.7606
18.208138 88.353 -133.1451
18.340080 88.372 -133.5209
18.472980 88.390 -133.8871
18.606844 88.408 -134.2448
18.741676 88.426 -134.5932
18.877487 88.445 -134.9311
19.014280 88.464 -135.2633
19.152065 88.484 -135.5924
19.290850 88.505 -135.9171
19.430639 88.527 -136.2451
19.571442 88.550 -136.5769
19.713264 88.574 -136.9128
19.856115 88.597 -137.2563
20.000000 88.620 -137.6072
20.144928 88.642 -137.9624
20.290907 88.663 -138.3224
20.437943 88.683 -138.6851
20.586044 88.701 -139.0447
20.735220 88.717 -139.4025
20.885475 88.733 -139.7548
21.036821 88.748 -140.0994
21.189262 88.762 -140.4379
21.342808 88.777 -140.7704
21.497467 88.791 -141.0967
21.653246 88.806 -141.4220
21.810154 88.821 -141.7457
21.968201 88.836 -142.0706
22.127390 88.851 -142.3993
22.287735 88.865 -142.7302
22.449242 88.879 -143.0635
22.611917 88.891 -143.3987
22.775772 88.902 -143.7306
22.940815 88.912 -144.0598
23.107054 88.922 -144.3820
23.274498 88.930 -144.6955
23.443153 88.939 -145.0013
23.613033 88.948 -145.2980
23.784142 88.957 -145.5890
23.956491 88.968 -145.8774
24.130091 88.981 -146.1650
24.304947 88.994 -146.4579
24.481071 89.008 -146.7558
24.658470 89.022 -147.0626
24.837156 89.036 -147.3774
25.017136 89.049 -147.6985
25.198421 89.061 -148.0257
25.381020 89.072 -148.3534
25.564941 89.082 -148.6817
25.750195 89.091 -149.0062
25.936790 89.099 -149.3270
26.124741 89.108 -149.6433
26.314051 89.115 -149.9557
26.504732 89.123 -150.2661
26.696796 89.131 -150.5747
26.890253 89.139 -150.8832
27.085112 89.147 -151.1907
27.281382 89.154 -151.4967
27.479073 89.160 -151.7995
27.678198 89.166 -152.0973
27.878765 89.172 -152.3892
28.080786 89.178 -152.6742
28.284271 89.184 -152.9550
28.489231 89.191 -153.2318
28.695675 89.199 -153.5101
28.903616 89.207 -153.7907
29.113064 89.216 -154.0778
29.324028 89.224 -154.3699
29.536524 89.230 -154.6675
29.750557 89.235 -154.9652
29.966141 89.239 -155.2610
30.183289 89.241 -155.5481
30.402010 89.242 -155.8256
30.622314 89.243 -156.0903
30.844217 89.244 -156.3457
31.067726 89.247 -156.5928
31.292856 89.251 -156.8395
31.519617 89.256 -157.0885
31.748020 89.262 -157.3448
31.978081 89.268 -157.6095
32.209808 89.273 -157.8823
32.443211 89.277 -158.1602
32.678310 89.280 -158.4393
32.915108 89.282 -158.7172
33.153625 89.283 -158.9907
33.393871 89.283 -159.2606
33.635857 89.284 -159.5271
33.879597 89.285 -159.7930
34.125103 89.285 -160.0590
34.372387 89.285 -160.3258
34.621464 89.284 -160.5917
34.872345 89.283 -160.8544
35.125042 89.281 -161.1117
35.379574 89.279 -161.3616
35.635948 89.278 -161.6057
35.894180 89.277 -161.8456
36.154285 89.277 -162.0854
36.416275 89.278 -162.3291
36.680161 89.279 -162.5776
36.945961 89.279 -162.8310
37.213688 89.278 -163.0856
37.483353 89.275 -163.3371
37.754974 89.272 -163.5826
38.028561 89.268 -163.8195
38.304131 89.265 -164.0492
38.581699 89.262 -164.2745
38.861279 89.259 -164.4986
39.142883 89.257 -164.7245
39.426529 89.255 -164.9534
39.712231 89.253 -165.1844
40.000000 89.250 -165.4162
40.289856 89.246 -165.6474
40.581814 89.242 -165.8771
40.875885 89.237 -166.1051
41.172089 89.233 -166.3313
41.470440 89.228 -166.5560
41.770950 89.223 -166.7790
42.073643 89.218 -167.0010
42.378525 89.214 -167.2235
42.685616 89.209 -167.4474
42.994934 89.204 -167.6725
43.306492 89.198 -167.8969
43.620308 89.192 -168.1174
43.936401 89.186 -168.3315
44.254780 89.180 -168.5396
44.575470 89.175 -168.7463
44.898483 89.171 -168.9566
45.223835 89.166 -169.1719
45.551544 89.161 -169.3889
45.881630 89.154 -169.6010
46.214108 89.146 -169.8027
46.548996 89.140 -169.9950
46.886307 89.134 -170.1866
47.226067 89.130 -170.3878
47.568283 89.124 -170.6004
47.912983 89.115 -170.8140
48.260181 89.104 -171.0127
48.609894 89.093 -171.1886
48.962143 89.085 -171.3508
49.316940 89.081 -171.5221
49.674313 89.079 -171.7219
50.034271 89.073 -171.9500
50.396843 89.063 -172.1842
50.762039 89.048 -172.3963
51.129883 89.034 -172.5756
51.500389 89.024 -172.7393
51.873581 89.019 -172.9195
52.249481 89.014 -173.1349
52.628101 89.004 -173.3736
53.009464 88.989 -173.6008
53.393593 88.970 -173.7871
53.780506 88.953 -173.9305
54.170223 88.943 -174.0546
54.562763 88.937 -174.1872
54.958145 88.934 -174.3408
55.356396 88.932 -174.5135
55.757530 88.929 -174.7022
56.161572 88.924 -174.9081
56.568542 88.915 -175.1268
56.978462 88.900 -175.3374
57.391350 88.881 -175.5112
57.807232 88.862 -175.6383
58.226128 88.850 -175.7418
58.648056 88.843 -175.8606
59.073048 88.837 -176.0146
59.501114 88.827 -176.1893
59.932281 88.814 -176.3567
60.366577 88.801 -176.5093
60.804020 88.789 -176.6656
61.244629 88.776 -176.8391
61.688435 88.760 -177.0151
62.135452 88.741 -177.1640
62.585712 88.725 -177.2820
63.039234 88.714 -177.4038
63.496040 88.707 -177.5639
63.956161 88.694 -177.7528
64.419617 88.675 -177.9188
64.886421 88.656 -178.0295
65.356621 88.647 -178.1150
65.830215 88.645 -178.2437
66.307251 88.641 -178.4426
66.787743 88.626 -178.6623
67.271713 88.602 -178.8260
67.759193 88.582 -178.9169
68.250206 88.571 -178.9967
68.744774 88.566 -179.1324
69.242928 88.554 -179.3147
69.744690 88.532 -179.4726
70.250084 88.510 -179.5591
70.759148 88.497 -179.6121
71.271896 88.492 -179.7060
71.788361 88.486 -179.8690
72.308571 88.470 179.9460
72.832550 88.446 179.8063
73.360321 88.425 179.7300
73.891922 88.413 179.6741
74.427376 88.407 179.5765
74.966705 88.400 179.4171
75.509949 88.385 179.2326
76.057121 88.361 179.0800
76.608261 88.337 178.9865
77.163399 88.319 178.9260
77.722557 88.307 178.8468
78.285767 88.297 178.7246
78.853058 88.281 178.5797
79.424461 88.259 178.4554
80.000000 88.237 178.3787
80.579712 88.222 178.3226
81.163628 88.213 178.2325
81.751770 88.202 178.0945
82.344177 88.182 177.9541
82.940880 88.160 177.8558
83.541901 88.142 177.7859
84.147285 88.127 177.7115
84.757050 88.113 177.6259
85.371231 88.099 177.5298
85.989868 88.084 177.4168
86.612984 88.064 177.3056
87.240616 88.042 177.2315
87.872803 88.024 177.1892
88.509560 88.012 177.1278
89.150940 88.000 177.0282
89.796967 87.982 176.9205
90.447670 87.963 176.8307
91.103088 87.943 176.7543
91.763260 87.924 176.6849
92.428215 87.905 176.6259
93.097992 87.889 176.5702
93.772614 87.875 176.4996
94.452133 87.859 176.4109
95.136566 87.840 176.3230
95.825966 87.820 176.2516
96.520363 87.799 176.1978
97.219788 87.781 176.1548
97.924286 87.766 176.1063
98.633881 87.750 176.0406
99.348625 87.731 175.9721
100.068542 87.713 175.9155
100.793686 87.694 175.8606
101.524078 87.675 175.8055
102.259766 87.657 175.7598
103.000778 87.639 175.7113
103.747162 87.621 175.6542
104.498962 87.602 175.6075
105.256203 87.586 175.5639
106.018929 87.569 175.5002
106.787186 87.550 175.4343
107.561012 87.529 175.3903
108.340446 87.510 175.3546
109.125526 87.491 175.3151
109.916290 87.472 175.2795
110.712791 87.454 175.2434
111.515060 87.435 175.2002
112.323143 87.414 175.1720
113.137085 87.396 175.1606
113.956924 87.380 175.1288
114.782700 87.362 175.0842
115.614464 87.342 175.0537
116.452255 87.324 175.0203
117.296112 87.305 174.9868
118.146095 87.286 174.9575
119.002228 87.266 174.9199
119.864563 87.244 174.9035
120.733154 87.225 174.9070
121.608040 87.207 174.8971
122.489258 87.188 174.8870
123.376869 87.170 174.8873
124.270905 87.154 174.8755
125.171425 87.135 174.8471
126.078468 87.114 174.8455
126.992081 87.097 174.8452
127.912323 87.078 174.8179
128.839233 87.057 174.8220
129.772842 87.041 174.8121
130.713242 87.022 174.7796
131.660431 87.001 174.7758
132.614502 86.980 174.7708
133.575485 86.960 174.8033
134.543427 86.949 174.8198
135.518387 86.930 174.7769
136.500412 86.905 174.8104
137.489548 86.891 174.8444
138.485855 86.872 174.8324
139.489380 86.851 174.8508
140.500168 86.831 174.8560
141.518295 86.811 174.8849
142.543793 86.794 174.8919
143.576721 86.774 174.9012
144.617142 86.757 174.9235
145.665100 86.738 174.9222
146.720642 86.715 174.9478
147.783844 86.695 174.9952
148.854752 86.677 175.0334
149.933411 86.658 175.0716
151.019897 86.640 175.0989
152.114243 86.620 175.1285
153.216522 86.603 175.1592
154.326797 86.581 175.1814
155.445114 86.564 175.2410
156.571533 86.550 175.2456
157.706116 86.529 175.2399
158.848923 86.504 175.2601
160.000000 86.481 175.3521
161.159424 86.471 175.4218
162.327255 86.450 175.4410
163.503540 86.432 175.5481
164.688354 86.419 175.5761
165.881760 86.396 175.6176
167.083801 86.373 175.7057
168.294571 86.361 175.7874
169.514099 86.338 175.8463
170.742462 86.326 175.9651
171.979736 86.307 175.9944
173.225967 86.285 176.1141
174.481232 86.267 176.1934
175.745605 86.249 176.2851
177.019119 86.234 176.3781
178.301880 86.226 176.4442
179.593933 86.204 176.5239
180.895340 86.194 176.6907
182.206177 86.181 176.8123
183.526520 86.162 176.9571
184.856430 86.153 177.1456
186.195984 86.144 177.1100
187.545227 86.110 177.2614
188.904266 86.120 177.3195
190.273132 86.094 177.3562
191.651932 86.095 177.5090
193.040726 86.089 177.6060
194.439575 86.082 177.6811
195.848572 86.073 177.8422
197.267761 86.072 177.9136
198.697250 86.066 177.9782
200.137085 86.057 178.0602
201.587372 86.053 178.1501
203.048157 86.046 178.2275
204.519531 86.037 178.3470
206.001556 86.035 178.4198
207.494324 86.028 178.4879
208.997925 86.017 178.5102
210.512405 86.010 178.6267
212.037857 86.004 178.6838
213.574371 85.998 178.7536
215.122025 85.987 178.8475
216.680893 85.979 178.8981
218.251053 85.971 178.9583
219.832581 85.966 179.0078
221.425583 85.959 179.0592
223.030121 85.944 179.1981
224.646286 85.933 179.2084
226.274170 85.926 179.3381
227.913849 85.880 179.4886
229.565399 85.914 179.4734
231.228928 85.904 179.5190
232.904510 85.889 179.6298
234.592224 85.890 179.6635
236.292191 85.885 179.7583
238.004456 85.867 179.8144
239.729126 85.852 179.9212
241.466309 85.854 -179.9987
243.216080 85.839 -179.9598
244.978516 85.832 -179.8755
246.753738 85.820 -179.8032
248.541809 85.806 -179.7447
250.342850 85.801 -179.6548
252.156937 85.782 -179.5771
253.984161 85.777 -179.4729
255.824646 85.768 -179.4004
257.678467 85.756 -179.3108
259.545685 85.745 -179.2095
261.426483 85.743 -179.0677
263.320862 85.720 -179.0145
265.229004 85.718 -178.8497
267.150970 85.699 -178.8694
269.086853 85.689 -178.7875
271.036774 85.686 -178.5518
273.000824 85.666 -178.5115
274.979095 85.666 -178.4626
276.971710 85.650 -178.2730
278.978760 85.636 -178.1627
281.000336 85.634 -178.0573
283.036591 85.622 -177.9563
285.087585 85.611 -177.8484
287.153442 85.603 -177.7116
289.234283 85.594 -177.5830
291.330200 85.585 -177.4854
293.441284 85.576 -177.3578
295.567688 85.565 -177.2208
297.709503 85.559 -177.1337
299.866821 85.548 -176.9689
302.039795 85.541 -176.8603
304.228485 85.529 -176.7402
306.433044 85.524 -176.5795
308.653595 85.515 -176.4773
310.890228 85.512 -176.3492
313.143066 85.506 -176.2466
315.412231 85.495 -176.0397
317.697845 85.490 -175.9630
320.000000 85.481 -175.8296
322.318848 85.475 -175.7273
324.654510 85.472 -175.5613
327.007080 85.463 -175.4047
329.376709 85.454 -175.2711
331.763519 85.447 -175.1590
334.167603 85.445 -175.0249
336.589142 85.438 -174.8316
339.028198 85.433 -174.6875
341.484924 85.428 -174.5461
343.959473 85.417 -174.4277
346.451935 85.413 -174.2544
348.962463 85.409 -174.1287
351.491211 85.403 -173.9820
354.038239 85.398 -173.8172
356.603760 85.394 -173.6729
359.187866 85.389 -173.5199
361.790680 85.386 -173.3634
364.412354 85.381 -173.2068
367.053040 85.376 -173.0386
369.712860 85.374 -172.9056
372.391968 85.370 -172.7350
375.090454 85.364 -172.5939
377.808533 85.360 -172.4202
380.546265 85.353 -172.2365
383.303864 85.353 -172.1163
386.081451 85.346 -171.9306
388.879150 85.347 -171.7895
391.697144 85.349 -171.6239
394.535522 85.345 -171.4471
397.394501 85.340 -171.2755
400.274170 85.339 -171.0955
403.174744 85.336 -170.9324
406.096313 85.335 -170.7743
409.039062 85.337 -170.6044
412.003113 85.332 -170.4318
414.988647 85.332 -170.2429
417.995850 85.330 -170.0699
421.024811 85.328 -169.8929
424.075714 85.331 -169.7089
427.148743 85.329 -169.5325
430.244049 85.329 -169.3472
433.361786 85.324 -169.1397
436.502106 85.331 -168.9865
439.665161 85.333 -168.8076
442.851166 85.332 -168.5945
446.060242 85.333 -168.4169
449.292572 85.336 -168.2475
452.548340 85.339 -168.0403
455.827698 85.340 -167.8642
459.130798 85.340 -167.6764
462.457855 85.345 -167.4859
465.809021 85.345 -167.3092
469.184448 85.350 -167.1308
472.584381 85.351 -166.9297
476.008911 85.355 -166.7661
479.458252 85.359 -166.5516
482.932617 85.364 -166.3708
486.432159 85.368 -166.1804
489.957031 85.373 -165.9833
493.507477 85.374 -165.8041
497.083618 85.381 -165.6141
500.685699 85.384 -165.4142
504.313873 85.389 -165.2368
507.968323 85.393 -165.0282
511.649292 85.397 -164.8396
515.356934 85.402 -164.6394
519.091370 85.410 -164.4744
522.852966 85.413 -164.2562
526.641724 85.418 -164.0652
530.458008 85.423 -163.8651
534.301941 85.428 -163.6667
538.173706 85.433 -163.4650
542.073547 85.440 -163.2782
546.001648 85.445 -163.0664
549.958191 85.449 -162.8738
553.943420 85.456 -162.6650
557.957520 85.459 -162.4654
562.000671 85.465 -162.2634
566.073181 85.471 -162.0507
570.175171 85.472 -161.8666
574.306885 85.474 -161.6509
578.468567 85.477 -161.4460
582.660400 85.474 -161.2298
586.882568 85.474 -160.9961
591.135376 85.467 -160.7403
595.419006 85.459 -160.4313
599.733643 85.451 -160.0738
604.079590 85.451 -159.6187
608.456970 85.465 -159.0914
612.866089 85.503 -158.5819
617.307190 85.565 -158.1858
621.780457 85.629 -157.9500
626.286133 85.684 -157.8355
630.824463 85.728 -157.7899
635.395691 85.759 -157.7339
640.000000 85.787 -157.6999
644.637695 85.809 -157.6618
649.309021 85.826 -157.6463
654.014160 85.840 -157.6478
658.753418 85.845 -157.6919
663.527039 85.840 -157.7574
668.335205 85.816 -157.8363
673.178284 85.765 -157.8587
678.056396 85.690 -157.6689
682.969849 85.609 -157.1688
687.918945 85.563 -156.4172
692.903870 85.560 -155.5885
697.924927 85.592 -154.8564
702.982422 85.637 -154.2645
708.076477 85.687 -153.7819
713.207520 85.738 -153.3774
718.375732 85.783 -153.0325
723.581360 85.825 -152.7041
728.824707 85.867 -152.4293
734.106079 85.905 -152.1563
739.425720 85.942 -151.8755
744.783936 85.979 -151.6192
750.180908 86.014 -151.3667
755.617065 86.050 -151.1060
761.092529 86.086 -150.8480
766.607727 86.120 -150.5874
772.162903 86.156 -150.3176
777.758301 86.191 -150.0495
783.394287 86.227 -149.7970
789.071045 86.261 -149.5383
794.789001 86.297 -149.2866
800.548340 86.334 -149.0250
806.349487 86.372 -148.7605
812.192627 86.407 -148.5036
818.078125 86.447 -148.2566
824.006226 86.483 -147.9882
829.977295 86.523 -147.7366
835.991699 86.564 -147.4762
842.049622 86.603 -147.2355
848.151428 86.643 -146.9607
854.297485 86.688 -146.7238
860.488098 86.729 -146.4764
866.723572 86.773 -146.2265
873.004211 86.815 -145.9749
879.330322 86.860 -145.7271
885.702332 86.908 -145.4983
892.120483 86.953 -145.2816
898.585144 87.001 -145.0284
905.096680 87.049 -144.8072
911.655396 87.098 -144.5583
918.261597 87.146 -144.3622
924.915710 87.194 -144.1346
931.618042 87.246 -143.9235
938.368896 87.296 -143.7352
945.168762 87.349 -143.5073
952.017822 87.400 -143.3100
958.916504 87.453 -143.1122
965.865234 87.509 -142.9332
972.864319 87.561 -142.7471
979.914062 87.619 -142.5538
987.014954 87.671 -142.3753
994.167236 87.727 -142.2153
1001.371399 87.783 -142.0551
1008.627747 87.841 -141.8951
1015.936646 87.895 -141.7397
1023.298584 87.952 -141.5941
1030.713867 88.009 -141.4533
1038.182739 88.065 -141.3267
1045.705933 88.123 -141.1861
1053.283447 88.181 -141.0621
1060.916016 88.239 -140.9585
1068.603882 88.298 -140.8305
1076.347412 88.355 -140.7146
1084.147095 88.414 -140.6247
1092.003296 88.472 -140.5297
1099.916382 88.530 -140.4500
1107.886841 88.589 -140.3461
1115.915039 88.647 -140.2661
1124.001343 88.703 -140.2049
1132.146362 88.763 -140.1267
1140.350342 88.820 -140.0514
1148.613770 88.879 -140.0104
1156.937134 88.936 -139.9539
1165.320801 88.992 -139.9010
1173.765137 89.052 -139.8408
1182.270752 89.108 -139.8006
1190.838013 89.165 -139.7644
1199.467285 89.220 -139.7303
1208.159180 89.279 -139.6982
1216.913940 89.334 -139.6756
1225.732178 89.390 -139.6387
1234.614380 89.447 -139.6163
1243.560913 89.503 -139.5999
1252.572266 89.558 -139.5739
1261.648926 89.614 -139.5683
1270.791382 89.668 -139.5480
1280.000000 89.725 -139.5434
1289.275391 89.779 -139.5514
1298.618042 89.834 -139.5474
1308.028320 89.889 -139.5476
1317.506836 89.944 -139.5397
1327.054077 89.997 -139.5570
1336.670410 90.053 -139.5681
1346.356567 90.105 -139.5784
1356.112793 90.160 -139.5890
1365.939697 90.213 -139.6030
1375.837891 90.267 -139.6257
1385.807739 90.321 -139.6276
1395.849854 90.373 -139.6652
1405.964844 90.429 -139.6916
1416.152954 90.481 -139.7125
1426.415039 90.534 -139.7402
1436.751465 90.586 -139.7702
1447.162720 90.640 -139.8094
1457.649414 90.693 -139.8523
1468.212158 90.747 -139.8768
1478.851440 90.798 -139.9328
1489.567871 90.852 -139.9767
1500.361816 90.902 -140.0118
1511.234131 90.955 -140.0515
1522.185059 91.006 -140.1044
1533.215454 91.059 -140.1506
1544.325806 91.113 -140.2197
1555.516602 91.166 -140.2570
1566.788574 91.216 -140.3009
1578.142090 91.266 -140.3729
1589.578003 91.321 -140.4464
1601.096680 91.371 -140.4729
1612.698975 91.421 -140.5491
1624.385254 91.473 -140.6299
1636.156250 91.525 -140.6871
1648.012451 91.576 -140.7478
1659.954590 91.628 -140.8576
1671.983398 91.679 -140.8908
1684.099243 91.731 -140.9865
1696.302856 91.780 -141.0608
1708.594971 91.836 -141.1562
1720.976196 91.884 -141.2045
1733.447144 91.937 -141.3236
1746.008423 91.988 -141.3683
1758.660645 92.037 -141.4781
1771.404663 92.094 -141.5504
1784.240967 92.136 -141.6543
1797.170288 92.190 -141.7286
1810.193359 92.238 -141.8101
1823.310791 92.289 -141.9016
1836.523193 92.337 -142.0245
1849.831421 92.389 -142.0811
1863.236084 92.439 -142.2249
1876.737793 92.489 -142.3102
1890.337524 92.540 -142.4419
1904.035645 92.596 -142.5131
1917.833008 92.642 -142.6028
1931.730469 92.695 -142.6982
1945.728638 92.746 -142.8032
1959.828125 92.795 -142.9269
1974.029907 92.850 -143.0316
1988.334473 92.898 -143.1308
2002.742798 92.943 -143.2885
2017.255493 92.997 -143.3826
2031.873291 93.051 -143.4805
2046.597168 93.106 -143.5398
2061.427734 93.153 -143.7028
2076.365479 93.205 -143.8057
2091.411865 93.251 -143.9083
2106.566895 93.305 -144.0572
2121.832031 93.365 -144.1333
2137.207764 93.417 -144.2255
2152.694824 93.470 -144.3723
2168.294189 93.522 -144.4880
2184.006592 93.573 -144.6106
2199.832764 93.631 -144.7545
2215.773682 93.699 -144.8257
2231.830078 93.745 -144.9631
2248.002686 93.801 -145.0759
2264.292725 93.857 -145.2565
2280.700684 93.913 -145.4031
2297.227539 93.975 -145.4661
2313.874268 94.029 -145.6193
2330.641602 94.085 -145.8120
2347.530273 94.141 -145.9377
2364.541504 94.211 -146.0699
2381.676025 94.274 -146.2250
2398.934570 94.339 -146.4489
2416.318359 94.395 -146.6265
2433.827881 94.453 -146.7706
2451.464355 94.518 -146.9823
2469.228760 94.584 -147.1508
2487.121826 94.651 -147.3025
2505.144531 94.714 -147.5088
2523.297852 94.782 -147.7162
2541.582764 94.849 -147.8985
2560.000000 94.918 -148.1237
2578.550781 94.977 -148.4264
2597.236084 95.047 -148.6304
2616.056641 95.124 -148.9052
2635.013672 95.201 -149.0895
2654.108154 95.261 -149.3454
2673.340820 95.335 -149.5798
2692.713135 95.403 -149.9485
2712.225586 95.471 -150.1938
2731.879395 95.547 -150.5336
2751.675781 95.626 -150.8697
2771.615479 95.697 -151.2360
2791.699707 95.764 -151.5842
2811.929688 95.840 -151.9345
2832.305908 95.921 -152.2823
2852.830078 95.989 -152.7068
2873.502930 96.062 -153.1875
2894.325439 96.135 -153.5832
2915.298828 96.198 -153.9815
2936.424316 96.269 -154.4701
2957.702881 96.342 -154.9651
2979.135742 96.410 -155.4098
3000.723633 96.478 -155.9844
3022.468262 96.533 -156.4393
3044.370117 96.609 -156.9690
3066.430908 96.678 -157.5593
3088.651611 96.738 -158.1572
3111.033203 96.791 -158.7106
3133.577148 96.851 -159.3259
3156.284180 96.900 -159.8344
3179.156006 96.942 -160.5481
3202.193359 96.989 -161.1533
3225.397949 97.043 -161.7598
3248.770508 97.084 -162.4001
3272.312500 97.118 -163.1485
3296.024902 97.174 -163.7695
3319.909180 97.189 -164.5485
3343.966797 97.230 -165.0191
3368.198486 97.277 -165.9305
3392.605713 97.302 -166.7853
3417.189941 97.294 -167.5805
3441.952393 97.256 -168.2747
3466.894287 97.186 -168.8583
3492.016846 97.098 -169.4188
3517.321289 97.006 -170.0816
3542.809326 96.972 -170.9580
3568.481934 96.928 -171.7307
3594.340576 96.925 -172.7030
3620.386719 96.889 -173.4063
3646.621582 96.898 -174.2296
3673.046387 96.882 -175.0142
3699.662842 96.881 -175.9019
3726.472168 96.861 -176.7561
3753.475586 96.845 -177.6318
3780.675049 96.845 -178.5256
3808.071289 96.847 -179.4703
3835.666016 96.828 179.6948
3863.460938 96.823 178.8313
3891.457275 96.831 177.7912
3919.656250 96.819 176.7751
3948.059814 96.822 175.8391
3976.668945 96.814 174.9256
4005.485596 96.819 173.9561
4034.510986 96.815 172.8221
4063.746582 96.813 171.7590
4093.194336 96.810 170.6581
4122.855469 96.798 169.5404
4152.730957 96.792 168.5021
4182.823730 96.800 167.2975
4213.133789 96.788 166.1736
4243.664062 96.794 164.9275
4274.415527 96.788 163.6986
4305.389648 96.767 162.5902
4336.588379 96.747 161.3575
4368.013184 96.724 160.1651
4399.665527 96.688 158.9334
4431.547363 96.658 157.7113
4463.660156 96.611 156.4393
4496.005371 96.566 155.1571
4528.585449 96.502 153.9676
4561.401367 96.442 152.7413
4594.455078 96.368 151.6155
4627.748535 96.304 150.4005
4661.283203 96.217 149.3087
4695.060547 96.124 148.1696
4729.083008 96.012 147.1719
4763.352051 95.899 146.0955
4797.869141 95.758 145.0505
4832.636719 95.606 144.1742
4867.655762 95.414 143.3534
4902.928711 95.196 142.6489
4938.457520 94.971 141.8777
4974.243652 94.748 141.2033
5010.289062 94.519 140.6021
5046.595703 94.289 139.9651
5083.165527 94.055 139.5324
5120.000000 93.821 139.1176
5157.101562 93.580 138.7726
5194.472168 93.336 138.5035
5232.113281 93.090 138.1807
5270.027344 92.852 138.1259
5308.216309 92.610 138.0588
5346.681641 92.374 138.0383
5385.426270 92.130 138.0206
5424.451172 91.884 138.1224
5463.758789 91.652 138.2720
5503.351562 91.416 138.5674
5543.230957 91.206 138.8785
5583.399414 90.956 139.1382
5623.859375 90.739 139.6343
5664.611816 90.520 140.0506
5705.660156 90.296 140.5090
5747.005859 90.087 141.0946
5788.650879 89.873 141.7191
5830.597656 89.662 142.3469
5872.848633 89.460 142.9800
5915.405762 89.250 143.7258
5958.271484 89.039 144.5448
6001.447266 88.815 145.4011
6044.936523 88.581 146.4310
6088.740234 88.309 147.7357
6132.861816 88.067 149.9315
6177.303223 88.054 152.9131
6222.066406 88.217 153.9939
6267.154297 88.213 154.0931
6312.568359 88.103 154.6603
6358.312012 87.982 155.4153
6404.386719 87.855 156.4250
6450.795898 87.730 157.5065
6497.541016 87.620 158.7906
6544.625000 87.529 160.1284
6592.049805 87.469 161.5500
6639.818359 87.409 163.1516
6687.933594 87.394 164.6904
6736.396973 87.375 166.3147
6785.211426 87.370 168.0701
6834.379883 87.420 170.1396
6883.904785 87.557 172.1495
6933.788574 87.774 173.8864
6984.033691 88.046 175.0088
7034.642578 88.291 175.5384
7085.618652 88.498 175.7288
7136.963867 88.652 175.9862
7188.681152 88.800 176.2793
7240.773438 88.955 176.6455
7293.243164 89.127 177.0441
7346.092773 89.314 177.4369
7399.325684 89.523 177.7578
7452.944336 89.766 177.9551
7506.951172 90.036 178.0373
7561.350098 90.332 177.8898
7616.142578 90.665 177.4916
7671.332031 91.018 176.7426
7726.921875 91.401 175.6294
7782.914551 91.801 173.9804
7839.312500 92.205 171.8392
7896.119629 92.610 169.0023
7953.337891 92.986 165.3242
8010.971191 93.299 160.8028
8069.021973 93.497 155.5203
8127.493164 93.539 149.5582
8186.388672 93.396 143.2875
8245.710938 93.051 137.1030
8305.461914 92.517 131.3913
8365.647461 91.846 126.4316
8426.267578 91.071 122.3362
8487.328125 90.236 119.1938
8548.831055 89.372 116.9155
8610.779297 88.504 115.3247
8673.176758 87.647 114.5144
8736.026367 86.813 114.2458
8799.331055 86.009 114.4311
8863.094727 85.234 115.0503
8927.320312 84.490 116.0685
8992.010742 83.771 117.3597
9057.170898 83.096 118.8947
9122.802734 82.438 120.7466
9188.910156 81.803 122.8290
9255.497070 81.190 125.0101
9322.566406 80.609 127.4718
9390.121094 80.051 130.2145
9458.166016 79.507 133.0301
9526.704102 79.000 136.0211
9595.738281 78.499 139.1707
9665.273438 78.021 142.7628
9735.311523 77.597 146.5685
9805.857422 77.177 150.6548
9876.915039 76.752 154.7768
9948.487305 76.428 159.3912
10020.578125 76.122 164.3061
10093.191406 75.880 169.7465
10166.331055 75.721 175.3552
10240.000000 75.685 -178.7607
10314.203125 75.771 -172.6930
10388.944336 75.980 -166.6102
10464.226562 76.341 -161.0594
10540.054688 76.910 -155.9766
10616.432617 77.569 -151.9569
10693.363281 78.284 -149.2491
10770.852539 78.990 -147.3694
10848.902344 79.647 -146.7793
10927.517578 80.207 -146.9563
11006.703125 80.672 -147.5829
11086.461914 81.009 -148.5436
11166.798828 81.260 -149.4323
11247.718750 81.449 -150.3533
11329.223633 81.583 -150.9966
11411.320312 81.693 -151.3460
11494.011719 81.788 -151.6258
11577.301758 81.871 -151.8371
11661.195312 81.955 -152.0100
11745.697266 82.058 -152.1562
11830.811523 82.162 -152.3230
11916.542969 82.256 -152.6204
12002.894531 82.360 -153.1046
12089.873047 82.458 -153.5593
12177.480469 82.545 -154.2956
12265.723633 82.599 -155.2258
12354.606445 82.637 -156.1974
12444.132812 82.628 -157.3753
12534.308594 82.571 -158.4908
12625.136719 82.487 -159.4952
12716.624023 82.347 -160.4359
12808.773438 82.233 -161.1608
12901.591797 82.111 -161.8438
12995.082031 81.960 -162.4019
13089.250000 81.780 -163.2001
13184.099609 81.599 -163.7753
13279.636719 81.379 -164.5004
13375.867188 81.124 -164.7486
13472.793945 80.867 -165.0155
13570.422852 80.586 -165.0157
13668.759766 80.309 -164.8865
13767.809570 80.048 -164.6371
13867.577148 79.776 -163.9708
13968.067383 79.538 -163.3758
14069.285156 79.295 -162.6695
14171.237305 79.074 -162.0855
14273.927734 78.850 -161.0885
14377.362305 78.651 -160.1483
14481.546875 78.445 -159.3716
14586.486328 78.259 -158.5044
14692.185547 78.046 -157.7063
14798.651367 77.835 -156.7904
14905.888672 77.636 -155.8247
15013.902344 77.405 -154.3937
15122.700195 77.200 -153.2258
15232.285156 76.996 -151.6860
15342.664062 76.828 -149.6996
15453.843750 76.688 -147.7254
15565.829102 76.629 -145.4945
15678.625000 76.657 -143.2930
15792.239258 76.769 -141.4049
15906.675781 76.890 -140.2332
16021.942383 77.005 -139.1875
16138.043945 77.149 -138.4016
16254.986328 77.252 -137.6105
16372.777344 77.404 -136.8050
16491.421875 77.529 -135.9513
16610.923828 77.775 -134.9225
16731.294922 78.127 -134.4287
16852.535156 78.624 -134.7256
16974.656250 79.214 -135.9711
17097.662109 79.879 -139.6345
17221.558594 80.329 -146.0847
17346.353516 80.358 -153.3649
17472.052734 80.086 -160.5290
17598.662109 79.623 -166.5651
17726.189453 79.145 -173.6137
17854.640625 78.212 178.4448
17984.021484 76.799 172.6814
18114.341797 75.194 169.5875
18245.605469 73.645 168.7515
18377.820312 72.058 169.8983
18510.994141 70.584 172.4515
18645.132812 69.388 175.9178
18780.242188 68.238 -179.7643
18916.332031 67.268 -174.7065
19053.408203 66.275 -170.1090
19191.476562 65.541 -164.4431
19330.546875 64.636 -160.3233
19470.623047 63.995 -155.8484
19611.714844 63.250 -151.1736
19753.830078 62.349 -146.7420
19896.974609 61.192 -142.7711
