* Measurement data measured by REW V5.20.4
* Source: Microphone (BGVP HiFi Audio-T01s), MICROPHONE (Master Volume), R, volume: 0.260
* Format: 256k Log Swept Sine, 1 sweep at -6.0 dBFS with no timing reference
* Dated: 30 May, 2023 12:31:15 AM
* REW Settings:
*  C-weighting compensation: Off
*  Target level: 75.0 dB
* Note: 
* Measurement: HA-FDX1 Green L
* Smoothing: None
* Frequency Step: 1/96 octave
* Start Frequency: 0.366 Hz
*
* Freq(Hz) SPL(dB) Phase(degrees)
0.366299 27.782 -100.7412
0.368954 27.841 -100.2572
0.371627 27.901 -99.7494
0.374320 27.962 -99.2174
0.377033 28.023 -98.6613
0.379765 28.084 -98.0807
0.382517 28.146 -97.4757
0.385289 28.208 -96.8459
0.388081 28.271 -96.1914
0.390893 28.334 -95.5119
0.393725 28.397 -94.8074
0.396578 28.461 -94.0778
0.399452 28.526 -93.3229
0.402347 28.591 -92.5427
0.405262 28.656 -91.7370
0.408199 28.722 -90.9058
0.411157 28.789 -90.0491
0.414136 28.856 -89.1668
0.417137 28.923 -88.2587
0.420160 28.991 -87.3250
0.423205 29.059 -86.3655
0.426272 29.128 -85.3803
0.429361 29.197 -84.3694
0.432472 29.267 -83.3328
0.435606 29.338 -82.2704
0.438762 29.409 -81.1825
0.441942 29.480 -80.0689
0.445144 29.552 -78.9298
0.448370 29.624 -77.7653
0.451619 29.697 -76.5755
0.454892 29.771 -75.3604
0.458188 29.845 -74.1203
0.461508 29.919 -72.8553
0.464852 29.994 -71.5655
0.468221 30.070 -70.2512
0.471614 30.146 -68.9125
0.475031 30.223 -67.5498
0.478474 30.300 -66.1632
0.481941 30.378 -64.7530
0.485433 30.456 -63.3196
0.488951 30.535 -61.8632
0.492494 30.615 -60.3843
0.496063 30.695 -58.8831
0.499658 30.776 -57.3601
0.503278 30.857 -55.8157
0.506925 30.939 -54.2503
0.510599 31.021 -52.6645
0.514299 31.104 -51.0588
0.518025 31.188 -49.4336
0.521779 31.272 -47.7896
0.525560 31.357 -46.1274
0.529369 31.443 -44.4477
0.533205 31.529 -42.7510
0.537069 31.616 -41.0382
0.540960 31.703 -39.3099
0.544880 31.791 -37.5669
0.548829 31.880 -35.8102
0.552806 31.969 -34.0405
0.556812 32.059 -32.2588
0.560847 32.150 -30.4659
0.564911 32.241 -28.6630
0.569004 32.333 -26.8510
0.573128 32.425 -25.0311
0.577281 32.519 -23.2044
0.581464 32.613 -21.3720
0.585677 32.707 -19.5353
0.589921 32.802 -17.6955
0.594196 32.898 -15.8539
0.598502 32.995 -14.0121
0.602839 33.092 -12.1713
0.607207 33.191 -10.3332
0.611608 33.289 -8.4994
0.616040 33.389 -6.6715
0.620504 33.489 -4.8512
0.625000 33.590 -3.0403
0.629529 33.692 -1.2407
0.634091 33.794 0.5458
0.638686 33.897 2.3170
0.643314 34.001 4.0711
0.647976 34.106 5.8057
0.652671 34.211 7.5187
0.657401 34.317 9.2078
0.662164 34.424 10.8705
0.666963 34.532 12.5044
0.671796 34.641 14.1069
0.676664 34.750 15.6754
0.681567 34.860 17.2070
0.686506 34.971 18.6989
0.691481 35.083 20.1483
0.696492 35.195 21.5519
0.701539 35.309 22.9067
0.706622 35.423 24.2093
0.711743 35.538 25.4565
0.716900 35.653 26.6447
0.722095 35.770 27.7702
0.727328 35.888 28.8294
0.732599 36.007 29.7865
0.737907 36.172 29.7877
0.743254 36.342 29.7910
0.748640 36.516 29.7964
0.754065 36.696 29.8039
0.759530 36.881 29.8135
0.765033 37.070 29.8252
0.770577 37.264 29.8389
0.776161 37.463 29.8546
0.781785 37.666 29.8723
0.787451 37.875 29.8919
0.793157 38.088 29.9134
0.798904 38.305 29.9367
0.804694 38.527 29.9619
0.810525 38.753 29.9888
0.816398 38.984 30.0174
0.822314 39.219 30.0478
0.828273 39.458 30.0797
0.834275 39.701 30.1132
0.840320 39.948 30.1481
0.846410 40.198 30.1845
0.852543 40.453 30.2223
0.858721 40.711 30.2613
0.864944 40.973 30.3016
0.871211 41.238 30.3429
0.877525 41.506 30.3854
0.883883 41.777 30.4287
0.890288 42.051 30.4729
0.896740 42.328 30.5179
0.903238 42.607 30.5636
0.909783 42.889 30.6098
0.916376 43.173 30.6564
0.923016 43.459 30.7034
0.929705 43.746 30.7506
0.936442 44.035 30.7978
0.943228 44.326 30.8450
0.950063 44.617 30.8919
0.956947 44.910 30.9386
0.963882 45.203 30.9847
0.970866 45.496 31.0301
0.977902 45.789 31.0748
0.984988 46.082 31.1184
0.992126 46.374 31.1609
0.999315 46.666 31.2020
1.006557 46.956 31.2416
1.013850 47.245 31.2794
1.021197 47.531 31.3152
1.028597 47.815 31.3489
1.036051 48.097 31.3802
1.043558 48.375 31.4088
1.051121 48.650 31.4346
1.058737 48.921 31.4573
1.066409 49.187 31.4765
1.074137 49.449 31.4922
1.081921 49.705 31.5039
1.089761 49.955 31.5113
1.097658 50.198 31.5143
1.105612 50.437 31.4334
1.113623 50.672 31.3311
1.121693 50.904 31.2181
1.129821 51.134 31.0946
1.138009 51.360 30.9607
1.146255 51.583 30.8165
1.154561 51.804 30.6622
1.162928 52.022 30.4979
1.171355 52.237 30.3238
1.179843 52.450 30.1400
1.188393 52.660 29.9468
1.197004 52.867 29.7444
1.205678 53.072 29.5330
1.214415 53.275 29.3127
1.223215 53.475 29.0840
1.232079 53.673 28.8469
1.241007 53.869 28.6019
1.250000 54.063 28.3492
1.259058 54.255 28.0891
1.268182 54.446 27.8219
1.277371 54.634 27.5481
1.286628 54.821 27.2679
1.295951 55.007 26.9818
1.305342 55.191 26.6902
1.314801 55.374 26.3935
1.324329 55.557 26.0921
1.333925 55.738 25.7865
1.343592 55.919 25.4773
1.353328 56.099 25.1649
1.363135 56.280 24.8498
1.373013 56.460 24.5328
1.382962 56.640 24.2142
1.392983 56.820 23.8948
1.403078 57.001 23.5753
1.413245 57.183 23.2562
1.423486 57.366 22.9382
1.433801 57.551 22.6222
1.444191 57.737 22.3089
1.454656 57.924 21.9991
1.465197 58.114 21.6935
1.475815 58.305 21.3878
1.486509 58.493 21.0774
1.497281 58.680 20.7625
1.508131 58.866 20.4432
1.519059 59.049 20.1194
1.530067 59.232 19.7913
1.541154 59.413 19.4588
1.552322 59.593 19.1221
1.563571 59.771 18.7813
1.574901 59.948 18.4364
1.586314 60.123 18.0875
1.597809 60.298 17.7348
1.609387 60.471 17.3782
1.621049 60.643 17.0180
1.632796 60.815 16.6541
1.644628 60.985 16.2868
1.656546 61.154 15.9162
1.668550 61.322 15.5423
1.680641 61.490 15.1654
1.692819 61.657 14.7855
1.705086 61.823 14.4028
1.717442 61.989 14.0175
1.729887 62.155 13.6297
1.742423 62.320 13.2396
1.755049 62.485 12.8474
1.767767 62.650 12.4532
1.780577 62.815 12.0574
1.793480 62.980 11.6599
1.806476 63.146 11.2612
1.819566 63.312 10.8613
1.832752 63.478 10.4606
1.846033 63.644 10.0574
1.859410 63.808 9.6509
1.872884 63.972 9.2410
1.886456 64.134 8.8279
1.900126 64.294 8.4115
1.913895 64.454 7.9920
1.927764 64.612 7.5694
1.941733 64.769 7.1438
1.955804 64.925 6.7153
1.969976 65.081 6.2839
1.984251 65.235 5.8498
1.998630 65.388 5.4131
2.013113 65.540 4.9738
2.027701 65.692 4.5321
2.042394 65.842 4.0880
2.057194 65.992 3.6417
2.072102 66.142 3.1932
2.087117 66.290 2.7428
2.102241 66.439 2.2906
2.117475 66.587 1.8366
2.132819 66.734 1.3810
2.148274 66.881 0.9240
2.163841 67.029 0.4658
2.179522 67.176 0.0064
2.195315 67.323 -0.4539
2.211223 67.470 -0.9157
2.227247 67.615 -1.3799
2.243386 67.759 -1.8463
2.259643 67.902 -2.3151
2.276017 68.044 -2.7859
2.292510 68.185 -3.2589
2.309123 68.324 -3.7338
2.325855 68.463 -4.2106
2.342710 68.600 -4.6892
2.359686 68.737 -5.1695
2.376785 68.872 -5.6514
2.394008 69.007 -6.1348
2.411356 69.141 -6.6195
2.428830 69.274 -7.1055
2.446430 69.407 -7.5926
2.464158 69.539 -8.0808
2.482014 69.670 -8.5698
2.500000 69.801 -9.0595
2.518116 69.932 -9.5498
2.536363 70.062 -10.0405
2.554743 70.192 -10.5315
2.573256 70.322 -11.0227
2.591902 70.451 -11.5149
2.610684 70.578 -12.0081
2.629603 70.705 -12.5021
2.648658 70.830 -12.9969
2.667851 70.954 -13.4925
2.687183 71.077 -13.9888
2.706656 71.199 -14.4856
2.726269 71.320 -14.9829
2.746025 71.440 -15.4806
2.765924 71.559 -15.9786
2.785967 71.678 -16.4768
2.806155 71.795 -16.9751
2.826490 71.913 -17.4734
2.846972 72.029 -17.9716
2.867602 72.146 -18.4697
2.888382 72.262 -18.9674
2.909312 72.377 -19.4646
2.930394 72.493 -19.9613
2.951629 72.608 -20.4574
2.973018 72.721 -20.9529
2.994561 72.834 -21.4476
3.016261 72.945 -21.9418
3.038118 73.056 -22.4352
3.060134 73.165 -22.9280
3.082309 73.274 -23.4201
3.104645 73.381 -23.9114
3.127142 73.488 -24.4021
3.149803 73.595 -24.8920
3.172627 73.700 -25.3812
3.195618 73.806 -25.8697
3.218774 73.910 -26.3574
3.242099 74.015 -26.8445
3.265593 74.119 -27.3308
3.289256 74.224 -27.8163
3.313092 74.327 -28.3008
3.337100 74.430 -28.7833
3.361282 74.533 -29.2639
3.385639 74.634 -29.7428
3.410173 74.734 -30.2199
3.434884 74.834 -30.6955
3.459775 74.933 -31.1697
3.484846 75.031 -31.6426
3.510098 75.129 -32.1145
3.535534 75.226 -32.5854
3.561154 75.323 -33.0555
3.586959 75.420 -33.5250
3.612952 75.516 -33.9941
3.639133 75.613 -34.4630
3.665504 75.709 -34.9319
3.692065 75.806 -35.3993
3.718820 75.901 -35.8645
3.745768 75.996 -36.3276
3.772911 76.090 -36.7889
3.800251 76.184 -37.2486
3.827789 76.277 -37.7072
3.855527 76.370 -38.1648
3.883466 76.462 -38.6217
3.911607 76.554 -39.0784
3.939952 76.646 -39.5351
3.968503 76.738 -39.9922
3.997260 76.830 -40.4501
4.026226 76.922 -40.9092
4.055401 77.013 -41.3684
4.084789 77.104 -41.8263
4.114388 77.195 -42.2830
4.144203 77.285 -42.7389
4.174234 77.375 -43.1944
4.204482 77.465 -43.6496
4.234950 77.554 -44.1049
4.265638 77.643 -44.5607
4.296548 77.732 -45.0172
4.327683 77.820 -45.4750
4.359043 77.908 -45.9344
4.390630 77.997 -46.3958
4.422447 78.085 -46.8586
4.454494 78.172 -47.3217
4.486773 78.259 -47.7851
4.519286 78.346 -48.2491
4.552034 78.433 -48.7138
4.585020 78.519 -49.1793
4.618245 78.604 -49.6459
4.651711 78.690 -50.1136
4.685419 78.775 -50.5828
4.719372 78.859 -51.0536
4.753570 78.944 -51.5262
4.788016 79.027 -52.0006
4.822712 79.111 -52.4764
4.857660 79.194 -52.9535
4.892860 79.276 -53.4318
4.928316 79.358 -53.9113
4.964029 79.439 -54.3918
5.000000 79.520 -54.8734
5.036232 79.601 -55.3560
5.072727 79.681 -55.8396
5.109486 79.760 -56.3239
5.146511 79.839 -56.8091
5.183805 79.918 -57.2955
5.221369 79.996 -57.7830
5.259205 80.073 -58.2714
5.297316 80.149 -58.7606
5.335702 80.225 -59.2502
5.374367 80.301 -59.7401
5.413311 80.376 -60.2301
5.452538 80.450 -60.7199
5.492050 80.524 -61.2094
5.531847 80.598 -61.6986
5.571934 80.671 -62.1878
5.612310 80.743 -62.6770
5.652979 80.814 -63.1659
5.693943 80.885 -63.6545
5.735204 80.956 -64.1426
5.776763 81.026 -64.6300
5.818624 81.096 -65.1166
5.860788 81.165 -65.6023
5.903258 81.234 -66.0867
5.946035 81.303 -66.5700
5.989123 81.371 -67.0521
6.032523 81.438 -67.5331
6.076237 81.505 -68.0132
6.120268 81.572 -68.4925
6.164618 81.638 -68.9710
6.209289 81.705 -69.4489
6.254284 81.771 -69.9261
6.299605 81.837 -70.4015
6.345255 81.902 -70.8755
6.391235 81.968 -71.3482
6.437549 82.033 -71.8202
6.484198 82.097 -72.2916
6.531185 82.162 -72.7630
6.578513 82.226 -73.2346
6.626183 82.291 -73.7063
6.674199 82.355 -74.1769
6.722563 82.419 -74.6467
6.771278 82.483 -75.1161
6.820345 82.547 -75.5854
6.869768 82.610 -76.0549
6.919549 82.674 -76.5253
6.969691 82.737 -76.9967
7.020196 82.800 -77.4685
7.071068 82.863 -77.9404
7.122308 82.926 -78.4125
7.173919 82.988 -78.8849
7.225904 83.051 -79.3579
7.278266 83.113 -79.8316
7.331007 83.174 -80.3062
7.384131 83.236 -80.7817
7.437639 83.297 -81.2578
7.491535 83.358 -81.7344
7.545822 83.418 -82.2113
7.600502 83.478 -82.6884
7.655579 83.538 -83.1654
7.711054 83.597 -83.6423
7.766932 83.656 -84.1195
7.823214 83.715 -84.5969
7.879904 83.773 -85.0740
7.937005 83.830 -85.5506
7.994520 83.888 -86.0263
8.052452 83.945 -86.5006
8.110803 84.001 -86.9737
8.169578 84.057 -87.4458
8.228777 84.113 -87.9168
8.288406 84.168 -88.3863
8.348468 84.223 -88.8541
8.408964 84.277 -89.3198
8.469899 84.332 -89.7833
8.531276 84.386 -90.2445
8.593097 84.439 -90.7036
8.655366 84.493 -91.1606
8.718086 84.546 -91.6155
8.781260 84.599 -92.0685
8.844893 84.652 -92.5191
8.908987 84.704 -92.9669
8.973545 84.757 -93.4123
9.038571 84.809 -93.8558
9.104069 84.862 -94.2979
9.170040 84.914 -94.7390
9.236490 84.966 -95.1781
9.303422 85.019 -95.6150
9.370838 85.071 -96.0504
9.438744 85.123 -96.4850
9.507140 85.175 -96.9195
9.576033 85.227 -97.3539
9.645425 85.279 -97.7872
9.715320 85.331 -98.2198
9.785721 85.383 -98.6523
9.856632 85.435 -99.0853
9.928058 85.486 -99.5190
10.000000 85.538 -99.9530
10.072464 85.589 -100.3870
10.145453 85.640 -100.8213
10.218971 85.690 -101.2560
10.293022 85.740 -101.6912
10.367610 85.790 -102.1269
10.442738 85.839 -102.5630
10.518411 85.887 -102.9988
10.594631 85.936 -103.4341
10.671404 85.983 -103.8687
10.748734 86.030 -104.3032
10.826623 86.076 -104.7369
10.905077 86.122 -105.1693
10.984100 86.167 -105.5997
11.063695 86.212 -106.0280
11.143867 86.255 -106.4546
11.224621 86.299 -106.8791
11.305959 86.341 -107.3010
11.387886 86.384 -107.7199
11.470407 86.426 -108.1357
11.553527 86.467 -108.5485
11.637249 86.508 -108.9587
11.721577 86.548 -109.3666
11.806517 86.589 -109.7713
11.892071 86.629 -110.1729
11.978246 86.669 -110.5722
12.065045 86.708 -110.9703
12.152473 86.748 -111.3673
12.240536 86.788 -111.7620
12.329235 86.827 -112.1555
12.418578 86.866 -112.5490
12.508568 86.905 -112.9432
12.599211 86.943 -113.3370
12.690510 86.982 -113.7310
12.782471 87.020 -114.1256
12.875097 87.058 -114.5215
12.968395 87.095 -114.9184
13.062370 87.132 -115.3159
13.157025 87.168 -115.7137
13.252366 87.204 -116.1118
13.348398 87.239 -116.5107
13.445127 87.273 -116.9093
13.542556 87.307 -117.3068
13.640691 87.340 -117.7030
13.739536 87.373 -118.0983
13.839099 87.405 -118.4920
13.939383 87.436 -118.8834
14.040393 87.467 -119.2723
14.142136 87.498 -119.6590
14.244616 87.528 -120.0439
14.347837 87.559 -120.4268
14.451808 87.589 -120.8073
14.556532 87.618 -121.1863
14.662014 87.648 -121.5652
14.768262 87.678 -121.9435
14.875278 87.708 -122.3212
14.983070 87.738 -122.6998
15.091644 87.767 -123.0800
15.201005 87.797 -123.4613
15.311157 87.826 -123.8438
15.422109 87.855 -124.2279
15.533863 87.883 -124.6141
15.646428 87.911 -125.0014
15.759809 87.939 -125.3888
15.874010 87.966 -125.7769
15.989040 87.992 -126.1651
16.104904 88.018 -126.5519
16.221605 88.043 -126.9366
16.339155 88.068 -127.3198
16.457554 88.093 -127.7004
16.576813 88.117 -128.0777
16.696936 88.141 -128.4519
16.817928 88.165 -128.8237
16.939798 88.188 -129.1928
17.062551 88.212 -129.5591
17.186193 88.236 -129.9242
17.310732 88.261 -130.2887
17.436172 88.285 -130.6520
17.562521 88.309 -131.0158
17.689787 88.334 -131.3808
17.817974 88.358 -131.7464
17.947090 88.382 -132.1130
18.077143 88.406 -132.4811
18.208138 88.430 -132.8501
18.340080 88.453 -133.2188
18.472980 88.475 -133.5878
18.606844 88.497 -133.9561
18.741676 88.519 -134.3221
18.877487 88.539 -134.6863
19.014280 88.560 -135.0478
19.152065 88.580 -135.4057
19.290850 88.599 -135.7601
19.430639 88.618 -136.1113
19.571442 88.637 -136.4588
19.713264 88.656 -136.8031
19.856115 88.675 -137.1451
20.000000 88.694 -137.4844
20.144928 88.712 -137.8223
20.290907 88.731 -138.1591
20.437943 88.749 -138.4948
20.586044 88.767 -138.8302
20.735220 88.785 -139.1652
20.885475 88.803 -139.4996
21.036821 88.820 -139.8336
21.189262 88.837 -140.1667
21.342808 88.853 -140.4983
21.497467 88.869 -140.8284
21.653246 88.884 -141.1563
21.810154 88.899 -141.4818
21.968201 88.914 -141.8049
22.127390 88.928 -142.1254
22.287735 88.943 -142.4438
22.449242 88.957 -142.7610
22.611917 88.971 -143.0768
22.775772 88.986 -143.3933
22.940815 89.000 -143.7103
23.107054 89.014 -144.0291
23.274498 89.028 -144.3502
23.443153 89.042 -144.6734
23.613033 89.055 -144.9991
23.784142 89.068 -145.3261
23.956491 89.079 -145.6536
24.130091 89.090 -145.9807
24.304947 89.100 -146.3051
24.481071 89.110 -146.6268
24.658470 89.118 -146.9437
24.837156 89.127 -147.2561
25.017136 89.135 -147.5638
25.198421 89.144 -147.8670
25.381020 89.153 -148.1677
25.564941 89.162 -148.4659
25.750195 89.172 -148.7646
25.936790 89.182 -149.0636
26.124741 89.192 -149.3647
26.314051 89.202 -149.6679
26.504732 89.212 -149.9731
26.696796 89.221 -150.2798
26.890253 89.230 -150.5867
27.085112 89.238 -150.8930
27.281382 89.246 -151.1973
27.479073 89.253 -151.4989
27.678198 89.260 -151.7970
27.878765 89.266 -152.0915
28.080786 89.273 -152.3821
28.284271 89.279 -152.6696
28.489231 89.285 -152.9540
28.695675 89.291 -153.2363
28.903616 89.298 -153.5169
29.113064 89.304 -153.7969
29.324028 89.311 -154.0765
29.536524 89.317 -154.3564
29.750557 89.323 -154.6368
29.966141 89.329 -154.9177
30.183289 89.334 -155.1985
30.402010 89.339 -155.4788
30.622314 89.343 -155.7574
30.844217 89.347 -156.0333
31.067726 89.350 -156.3061
31.292856 89.353 -156.5753
31.519617 89.356 -156.8417
31.748020 89.359 -157.1055
31.978081 89.362 -157.3690
32.209808 89.366 -157.6326
32.443211 89.369 -157.8981
32.678310 89.372 -158.1654
32.915108 89.375 -158.4346
33.153625 89.377 -158.7043
33.393871 89.379 -158.9733
33.635857 89.380 -159.2404
33.879597 89.380 -159.5043
34.125103 89.381 -159.7647
34.372387 89.381 -160.0216
34.621464 89.381 -160.2758
34.872345 89.382 -160.5280
35.125042 89.382 -160.7789
35.379574 89.383 -161.0294
35.635948 89.384 -161.2800
35.894180 89.385 -161.5310
36.154285 89.386 -161.7830
36.416275 89.387 -162.0363
36.680161 89.387 -162.2906
36.945961 89.387 -162.5458
37.213688 89.386 -162.8005
37.483353 89.384 -163.0528
37.754974 89.382 -163.3011
38.028561 89.379 -163.5439
38.304131 89.376 -163.7806
38.581699 89.373 -164.0125
38.861279 89.371 -164.2412
39.142883 89.369 -164.4695
39.426529 89.367 -164.6996
39.712231 89.365 -164.9320
40.000000 89.363 -165.1658
40.289856 89.360 -165.3990
40.581814 89.356 -165.6291
40.875885 89.352 -165.8548
41.172089 89.348 -166.0768
41.470440 89.344 -166.2971
41.770950 89.341 -166.5180
42.073643 89.337 -166.7415
42.378525 89.333 -166.9668
42.685616 89.329 -167.1913
42.994934 89.323 -167.4126
43.306492 89.318 -167.6293
43.620308 89.313 -167.8423
43.936401 89.308 -168.0548
44.254780 89.304 -168.2703
44.575470 89.299 -168.4898
44.898483 89.294 -168.7111
45.223835 89.287 -168.9303
45.551544 89.280 -169.1446
45.881630 89.273 -169.3535
46.214108 89.266 -169.5590
46.548996 89.259 -169.7636
46.886307 89.252 -169.9671
47.226067 89.244 -170.1660
47.568283 89.237 -170.3561
47.912983 89.230 -170.5383
48.260181 89.226 -170.7201
48.609894 89.223 -170.9126
48.962143 89.221 -171.1232
49.316940 89.216 -171.3489
49.674313 89.208 -171.5768
50.034271 89.197 -171.7918
50.396843 89.186 -171.9864
50.762039 89.176 -172.1661
51.129883 89.167 -172.3441
51.500389 89.160 -172.5309
51.873581 89.152 -172.7258
52.249481 89.142 -172.9193
52.628101 89.131 -173.1021
53.009464 89.121 -173.2747
53.393593 89.111 -173.4460
53.780506 89.103 -173.6237
54.170223 89.093 -173.8065
54.562763 89.082 -173.9853
54.958145 89.071 -174.1535
55.356396 89.062 -174.3153
55.757530 89.054 -174.4828
56.161572 89.046 -174.6639
56.568542 89.036 -174.8534
56.978462 89.024 -175.0367
57.391350 89.011 -175.2053
57.807232 89.000 -175.3647
58.226128 88.990 -175.5289
58.648056 88.980 -175.7041
59.073048 88.968 -175.8806
59.501114 88.954 -176.0414
59.932281 88.941 -176.1818
60.366577 88.932 -176.3189
60.804020 88.925 -176.4770
61.244629 88.916 -176.6622
61.688435 88.902 -176.8510
62.135452 88.885 -177.0081
62.585712 88.870 -177.1251
63.039234 88.862 -177.2368
63.496040 88.858 -177.3906
63.956161 88.851 -177.5989
64.419617 88.833 -177.8155
64.886421 88.809 -177.9773
65.356621 88.787 -178.0691
65.830215 88.776 -178.1406
66.307251 88.771 -178.2551
66.787743 88.764 -178.4213
67.271713 88.749 -178.5933
67.759193 88.732 -178.7299
68.250206 88.718 -178.8409
68.744774 88.708 -178.9635
69.242928 88.697 -179.1105
69.744690 88.682 -179.2592
70.250084 88.665 -179.3864
70.759148 88.650 -179.4967
71.271896 88.637 -179.6101
71.788361 88.626 -179.7398
72.308571 88.612 -179.8838
72.832550 88.595 179.9745
73.360321 88.575 179.8594
73.891922 88.559 179.7757
74.427376 88.549 179.6871
74.966705 88.542 179.5500
75.509949 88.528 179.3742
76.057121 88.507 179.2213
76.608261 88.485 179.1263
77.163399 88.471 179.0503
77.722557 88.461 178.9409
78.285767 88.447 178.8079
78.853058 88.430 178.6916
79.424461 88.414 178.5917
80.000000 88.400 178.4843
80.579712 88.384 178.3751
81.163628 88.367 178.2834
81.751770 88.354 178.1942
82.344177 88.341 178.0836
82.940880 88.324 177.9650
83.541901 88.305 177.8670
84.147285 88.288 177.7864
84.757050 88.273 177.6982
85.371231 88.258 177.5979
85.989868 88.241 177.4974
86.612984 88.223 177.4048
87.240616 88.206 177.3192
87.872803 88.191 177.2344
88.509560 88.175 177.1432
89.150940 88.158 177.0496
89.796967 88.141 176.9630
90.447670 88.124 176.8810
91.103088 88.107 176.7978
91.763260 88.089 176.7210
92.428215 88.072 176.6520
93.097992 88.057 176.5768
93.772614 88.040 176.4940
94.452133 88.021 176.4206
95.136566 88.004 176.3592
95.825966 87.989 176.2937
96.520363 87.973 176.2133
97.219788 87.954 176.1279
97.924286 87.934 176.0674
98.633881 87.917 176.0347
99.348625 87.906 175.9749
100.068542 87.890 175.8673
100.793686 87.867 175.7855
101.524078 87.846 175.7587
102.259766 87.832 175.7170
103.000778 87.815 175.6489
103.747162 87.796 175.6025
104.498962 87.782 175.5508
105.256203 87.764 175.4708
106.018929 87.742 175.4159
106.787186 87.724 175.3857
107.561012 87.707 175.3350
108.340446 87.688 175.2875
109.125526 87.670 175.2570
109.916290 87.655 175.2104
110.712791 87.637 175.1597
111.515060 87.619 175.1187
112.323143 87.601 175.0763
113.137085 87.582 175.0531
113.956924 87.567 175.0269
114.782700 87.550 174.9721
115.614464 87.528 174.9434
116.452255 87.511 174.9290
117.296112 87.493 174.8945
118.146095 87.474 174.8764
119.002228 87.460 174.8414
119.864563 87.440 174.7863
120.733154 87.420 174.7668
121.608040 87.405 174.7382
122.489258 87.386 174.7005
123.376869 87.368 174.6953
124.270905 87.353 174.6718
125.171425 87.333 174.6396
126.078468 87.313 174.6491
126.992081 87.297 174.6497
127.912323 87.278 174.6360
128.839233 87.262 174.6456
129.772842 87.249 174.6042
130.713242 87.226 174.5545
131.660431 87.206 174.5796
132.614502 87.192 174.5617
133.575485 87.169 174.5520
134.543427 87.155 174.5967
135.518387 87.141 174.5613
136.500412 87.117 174.5677
137.489548 87.105 174.5917
138.485855 87.086 174.5397
139.489380 87.062 174.5543
140.500168 87.047 174.5773
141.518295 87.031 174.5653
142.543793 87.013 174.5852
143.576721 87.000 174.6025
144.617142 86.983 174.6041
145.665100 86.965 174.6232
146.720642 86.947 174.6372
147.783844 86.929 174.6535
148.854752 86.909 174.6541
149.933411 86.889 174.6783
151.019897 86.874 174.6985
152.114243 86.857 174.7234
153.216522 86.845 174.7581
154.326797 86.830 174.7475
155.445114 86.809 174.7711
156.571533 86.793 174.8134
157.706116 86.773 174.8220
158.848923 86.757 174.9074
160.000000 86.751 174.8925
161.159424 86.726 174.9042
162.327255 86.720 174.9612
163.503540 86.697 174.8908
164.688354 86.672 174.9946
165.881760 86.659 175.0197
167.083801 86.639 175.0697
168.294571 86.628 175.1505
169.514099 86.622 175.1443
170.742462 86.592 175.1660
171.979736 86.580 175.3021
173.225967 86.567 175.2349
174.481232 86.528 175.3083
175.745605 86.526 175.3088
177.019119 86.485 175.3788
178.301880 86.516 175.4634
179.593933 86.485 175.3829
180.895340 86.497 175.4919
182.206177 86.454 175.4417
183.526520 86.431 175.7278
184.856430 86.424 175.7095
186.195984 86.377 175.7939
187.545227 86.380 175.9135
188.904266 86.361 175.8858
190.273132 86.349 175.9970
191.651932 86.342 176.0231
193.040726 86.313 176.1501
194.439575 86.302 176.1399
195.848572 86.268 176.2634
197.267761 86.258 176.1865
198.697250 86.232 176.2767
200.137085 86.220 176.3264
201.587372 86.222 176.3904
203.048157 86.203 176.4846
204.519531 86.196 176.5484
206.001556 86.183 176.7040
207.494324 86.172 176.7698
208.997925 86.162 176.8393
210.512405 86.139 176.9352
212.037857 86.123 177.0182
213.574371 86.104 177.1572
215.122025 86.091 177.2213
216.680893 86.082 177.2901
218.251053 86.051 177.4393
219.832581 86.046 177.5284
221.425583 86.030 177.6918
223.030121 86.020 177.7493
224.646286 85.995 177.7713
226.274170 85.987 177.9706
227.913849 85.978 178.1541
229.565399 85.951 178.2011
231.228928 85.962 178.4841
232.904510 85.919 178.5819
234.592224 85.940 178.6146
236.292191 85.891 178.7660
238.004456 85.930 178.8016
239.729126 85.897 179.1992
241.466309 85.900 178.9637
243.216080 85.897 179.4160
244.978516 85.896 179.4437
246.753738 85.892 179.6247
248.541809 85.859 179.5992
250.342850 85.897 -179.9898
252.156937 85.843 -179.9014
253.984161 85.901 -179.8132
255.824646 85.851 -179.5251
257.678467 85.858 -179.7319
259.545685 85.871 -179.4414
261.426483 85.876 -179.4190
263.320862 85.894 -179.3546
265.229004 85.879 -179.3910
267.150970 85.870 -179.1725
269.086853 85.863 -179.0625
271.036774 85.895 -179.0307
273.000824 85.879 -179.0435
274.979095 85.877 -178.9854
276.971710 85.863 -178.9011
278.978760 85.856 -178.7519
281.000336 85.844 -178.7162
283.036591 85.835 -178.6287
285.087585 85.829 -178.5536
287.153442 85.840 -178.4002
289.234283 85.826 -178.3599
291.330200 85.817 -178.2460
293.441284 85.815 -178.2059
295.567688 85.799 -178.0814
297.709503 85.788 -177.9975
299.866821 85.790 -177.9450
302.039795 85.781 -177.8115
304.228485 85.786 -177.7108
306.433044 85.770 -177.5826
308.653595 85.767 -177.4945
310.890228 85.749 -177.3644
313.143066 85.748 -177.2643
315.412231 85.737 -177.1834
317.697845 85.741 -177.0492
320.000000 85.728 -176.9037
322.318848 85.729 -176.7976
324.654510 85.711 -176.7056
327.007080 85.713 -176.5585
329.376709 85.707 -176.4975
331.763519 85.698 -176.3138
334.167603 85.714 -176.1149
336.589142 85.696 -176.2148
339.028198 85.696 -175.7961
341.484924 85.705 -175.8785
343.959473 85.659 -175.6245
346.451935 85.684 -175.5478
348.962463 85.665 -175.5270
351.491211 85.667 -175.3366
354.038239 85.670 -175.2072
356.603760 85.666 -175.0685
359.187866 85.660 -174.9431
361.790680 85.654 -174.7935
364.412354 85.651 -174.6719
367.053040 85.652 -174.5423
369.712860 85.648 -174.4190
372.391968 85.649 -174.2542
375.090454 85.650 -174.1287
377.808533 85.648 -173.9933
380.546265 85.643 -173.8587
383.303864 85.641 -173.7126
386.081451 85.644 -173.5186
388.879150 85.639 -173.3770
391.697144 85.635 -173.2617
394.535522 85.632 -173.1563
397.394501 85.638 -172.9874
400.274170 85.641 -172.8101
403.174744 85.639 -172.6463
406.096313 85.639 -172.5611
409.039062 85.635 -172.3712
412.003113 85.633 -172.1866
414.988647 85.635 -172.1025
417.995850 85.653 -171.9095
421.024811 85.669 -171.7754
424.075714 85.653 -171.5713
427.148743 85.643 -171.4199
430.244049 85.648 -171.3110
433.361786 85.651 -171.1657
436.502106 85.653 -170.9949
439.665161 85.655 -170.8726
442.851166 85.660 -170.7386
446.060242 85.652 -170.5857
449.292572 85.658 -170.4185
452.548340 85.670 -170.2399
455.827698 85.671 -170.0529
459.130798 85.672 -169.9120
462.457855 85.678 -169.7786
465.809021 85.682 -169.6218
469.184448 85.683 -169.4591
472.584381 85.690 -169.2638
476.008911 85.693 -169.1292
479.458252 85.698 -168.9188
482.932617 85.699 -168.7849
486.432159 85.703 -168.6763
489.957031 85.723 -168.4783
493.507477 85.714 -168.3008
497.083618 85.720 -168.1787
500.685699 85.730 -167.9433
504.313873 85.730 -167.8259
507.968323 85.752 -167.6177
511.649292 85.758 -167.4084
515.356934 85.760 -167.3160
519.091370 85.763 -167.1274
522.852966 85.780 -166.9757
526.641724 85.781 -166.7894
530.458008 85.790 -166.6125
534.301941 85.796 -166.4593
538.173706 85.806 -166.3063
542.073547 85.819 -166.1226
546.001648 85.824 -165.9816
549.958191 85.835 -165.7567
553.943420 85.837 -165.6259
557.957520 85.850 -165.4726
562.000671 85.855 -165.3024
566.073181 85.863 -165.1777
570.175171 85.869 -164.9728
574.306885 85.878 -164.7766
578.468567 85.874 -164.6389
582.660400 85.882 -164.5557
586.882568 85.890 -164.3319
591.135376 85.869 -164.0442
595.419006 85.872 -163.9000
599.733643 85.865 -163.5071
604.079590 85.865 -163.1409
608.456970 85.883 -162.6773
612.866089 85.915 -162.2173
617.307190 85.969 -161.8546
621.780457 86.030 -161.6214
626.286133 86.082 -161.5412
630.824463 86.126 -161.4732
635.395691 86.162 -161.4592
640.000000 86.190 -161.4175
644.637695 86.209 -161.3821
649.309021 86.230 -161.3569
654.014160 86.245 -161.3307
658.753418 86.255 -161.3316
663.527039 86.256 -161.3299
668.335205 86.247 -161.3021
673.178284 86.221 -161.2061
678.056396 86.184 -161.0112
682.969849 86.160 -160.6323
687.918945 86.149 -160.0853
692.903870 86.168 -159.5393
697.924927 86.206 -159.0820
702.982422 86.247 -158.7133
708.076477 86.292 -158.4077
713.207520 86.335 -158.1591
718.375732 86.375 -157.9376
723.581360 86.413 -157.7348
728.824707 86.451 -157.5426
734.106079 86.485 -157.3490
739.425720 86.519 -157.1777
744.783936 86.554 -156.9977
750.180908 86.587 -156.8056
755.617065 86.622 -156.6256
761.092529 86.652 -156.4445
766.607727 86.691 -156.2945
772.162903 86.728 -156.1119
777.758301 86.761 -155.9322
783.394287 86.795 -155.7553
789.071045 86.830 -155.5821
794.789001 86.866 -155.4154
800.548340 86.903 -155.2183
806.349487 86.939 -155.0543
812.192627 86.978 -154.8837
818.078125 87.016 -154.7195
824.006226 87.054 -154.5531
829.977295 87.092 -154.3741
835.991699 87.133 -154.2061
842.049622 87.171 -154.0580
848.151428 87.214 -153.8843
854.297485 87.254 -153.7116
860.488098 87.297 -153.5990
866.723572 87.345 -153.4312
873.004211 87.382 -153.3169
879.330322 87.435 -153.1363
885.702332 87.469 -153.0002
892.120483 87.523 -152.8537
898.585144 87.566 -152.7322
905.096680 87.614 -152.5972
911.655396 87.661 -152.4869
918.261597 87.707 -152.3791
924.915710 87.758 -152.2451
931.618042 87.807 -152.1518
938.368896 87.858 -152.0514
945.168762 87.907 -151.9724
952.017822 87.961 -151.8552
958.916504 88.003 -151.7787
965.865234 88.066 -151.7096
972.864319 88.110 -151.6350
979.914062 88.169 -151.5580
987.014954 88.217 -151.5110
994.167236 88.273 -151.4455
1001.371399 88.329 -151.3886
1008.627747 88.380 -151.3649
1015.936646 88.435 -151.3169
1023.298584 88.487 -151.2861
1030.713867 88.543 -151.2843
1038.182739 88.597 -151.2791
1045.705933 88.656 -151.2534
1053.283447 88.707 -151.2773
1060.916016 88.763 -151.2874
1068.603882 88.816 -151.3042
1076.347412 88.872 -151.3183
1084.147095 88.928 -151.3749
1092.003296 88.980 -151.4105
1099.916382 89.033 -151.4477
1107.886841 89.088 -151.5140
1115.915039 89.142 -151.5801
1124.001343 89.194 -151.6342
1132.146362 89.250 -151.7196
1140.350342 89.302 -151.8178
1148.613770 89.357 -151.9005
1156.937134 89.406 -152.0051
1165.320801 89.457 -152.1078
1173.765137 89.508 -152.1992
1182.270752 89.558 -152.3333
1190.838013 89.609 -152.4696
1199.467285 89.655 -152.5884
1208.159180 89.705 -152.7331
1216.913940 89.753 -152.8704
1225.732178 89.801 -152.9945
1234.614380 89.852 -153.1790
1243.560913 89.896 -153.3459
1252.572266 89.939 -153.5049
1261.648926 89.983 -153.6838
1270.791382 90.027 -153.8595
1280.000000 90.070 -154.0356
1289.275391 90.113 -154.2065
1298.618042 90.155 -154.3946
1308.028320 90.195 -154.6073
1317.506836 90.233 -154.7885
1327.054077 90.274 -154.9993
1336.670410 90.310 -155.2044
1346.356567 90.347 -155.4182
1356.112793 90.386 -155.6409
1365.939697 90.421 -155.8267
1375.837891 90.456 -156.0785
1385.807739 90.487 -156.2926
1395.849854 90.520 -156.5056
1405.964844 90.546 -156.7641
1416.152954 90.578 -157.0056
1426.415039 90.608 -157.2043
1436.751465 90.634 -157.4279
1447.162720 90.660 -157.6742
1457.649414 90.687 -157.8880
1468.212158 90.713 -158.1417
1478.851440 90.736 -158.4055
1489.567871 90.757 -158.6003
1500.361816 90.781 -158.8491
1511.234131 90.800 -159.0895
1522.185059 90.822 -159.3273
1533.215454 90.840 -159.5633
1544.325806 90.855 -159.7989
1555.516602 90.873 -160.0286
1566.788574 90.886 -160.2591
1578.142090 90.902 -160.4983
1589.578003 90.916 -160.7153
1601.096680 90.927 -160.9552
1612.698975 90.940 -161.1763
1624.385254 90.949 -161.4005
1636.156250 90.958 -161.6185
1648.012451 90.967 -161.8436
1659.954590 90.975 -162.0577
1671.983398 90.982 -162.2619
1684.099243 90.986 -162.4656
1696.302856 90.992 -162.6702
1708.594971 90.995 -162.8594
1720.976196 91.001 -163.0560
1733.447144 91.003 -163.2462
1746.008423 91.005 -163.4167
1758.660645 91.006 -163.5826
1771.404663 91.007 -163.7703
1784.240967 91.006 -163.9323
1797.170288 91.007 -164.0871
1810.193359 91.005 -164.2323
1823.310791 91.007 -164.3873
1836.523193 91.005 -164.5261
1849.831421 91.002 -164.6623
1863.236084 91.001 -164.7958
1876.737793 90.998 -164.9229
1890.337524 90.997 -165.0353
1904.035645 90.993 -165.1478
1917.833008 90.994 -165.2524
1931.730469 90.991 -165.3463
1945.728638 90.989 -165.4284
1959.828125 90.987 -165.5235
1974.029907 90.984 -165.6169
1988.334473 90.982 -165.6903
2002.742798 90.980 -165.7407
2017.255493 90.980 -165.7887
2031.873291 90.976 -165.8643
2046.597168 90.977 -165.9156
2061.427734 90.976 -165.9432
2076.365479 90.977 -165.9966
2091.411865 90.978 -166.0253
2106.566895 90.977 -166.0572
2121.832031 90.979 -166.0778
2137.207764 90.981 -166.1025
2152.694824 90.982 -166.1110
2168.294189 90.986 -166.1248
2184.006592 90.990 -166.1287
2199.832764 90.993 -166.1192
2215.773682 90.998 -166.1198
2231.830078 91.004 -166.1290
2248.002686 91.012 -166.1077
2264.292725 91.019 -166.0902
2280.700684 91.028 -166.0737
2297.227539 91.037 -166.0471
2313.874268 91.047 -166.0322
2330.641602 91.057 -166.0195
2347.530273 91.070 -165.9825
2364.541504 91.083 -165.9526
2381.676025 91.096 -165.9334
2398.934570 91.112 -165.8943
2416.318359 91.125 -165.8479
2433.827881 91.143 -165.8239
2451.464355 91.160 -165.7928
2469.228760 91.179 -165.7528
2487.121826 91.198 -165.6948
2505.144531 91.219 -165.6720
2523.297852 91.239 -165.6281
2541.582764 91.264 -165.5898
2560.000000 91.289 -165.5480
2578.550781 91.313 -165.5110
2597.236084 91.341 -165.4684
2616.056641 91.369 -165.4222
2635.013672 91.401 -165.3890
2654.108154 91.433 -165.3441
2673.340820 91.469 -165.3171
2692.713135 91.503 -165.2998
2712.225586 91.542 -165.2898
2731.879395 91.582 -165.2839
2751.675781 91.621 -165.2903
2771.615479 91.663 -165.3055
2791.699707 91.701 -165.3461
2811.929688 91.747 -165.3573
2832.305908 91.789 -165.4050
2852.830078 91.834 -165.4540
2873.502930 91.877 -165.5091
2894.325439 91.922 -165.5763
2915.298828 91.968 -165.6478
2936.424316 92.016 -165.7301
2957.702881 92.063 -165.8223
2979.135742 92.115 -165.9114
3000.723633 92.162 -166.0180
3022.468262 92.213 -166.1335
3044.370117 92.264 -166.2540
3066.430908 92.316 -166.3809
3088.651611 92.369 -166.5216
3111.033203 92.423 -166.6723
3133.577148 92.479 -166.8461
3156.284180 92.536 -167.0292
3179.156006 92.592 -167.2182
3202.193359 92.651 -167.4131
3225.397949 92.709 -167.6356
3248.770508 92.770 -167.8640
3272.312500 92.831 -168.1036
3296.024902 92.892 -168.3710
3319.909180 92.955 -168.6558
3343.966797 93.020 -168.9504
3368.198486 93.082 -169.2636
3392.605713 93.148 -169.5957
3417.189941 93.216 -169.9605
3441.952393 93.281 -170.3336
3466.894287 93.350 -170.7345
3492.016846 93.416 -171.1580
3517.321289 93.485 -171.6055
3542.809326 93.553 -172.0598
3568.481934 93.623 -172.5901
3594.340576 93.691 -173.1048
3620.386719 93.759 -173.6584
3646.621582 93.827 -174.2612
3673.046387 93.895 -174.8876
3699.662842 93.961 -175.5474
3726.472168 94.027 -176.2419
3753.475586 94.089 -176.9752
3780.675049 94.152 -177.7442
3808.071289 94.215 -178.5503
3835.666016 94.272 -179.4028
3863.460938 94.328 179.6990
3891.457275 94.378 178.7505
3919.656250 94.425 177.7862
3948.059814 94.467 176.7594
3976.668945 94.504 175.6968
4005.485596 94.534 174.5933
4034.510986 94.560 173.4445
4063.746582 94.575 172.2502
4093.194336 94.583 171.0201
4122.855469 94.581 169.7643
4152.730957 94.573 168.4576
4182.823730 94.551 167.1579
4213.133789 94.520 165.8207
4243.664062 94.475 164.4655
4274.415527 94.424 163.0989
4305.389648 94.356 161.7292
4336.588379 94.275 160.3541
4368.013184 94.185 158.9897
4399.665527 94.083 157.6437
4431.547363 93.965 156.3328
4463.660156 93.835 155.0218
4496.005371 93.697 153.7618
4528.585449 93.544 152.5397
4561.401367 93.377 151.3525
4594.455078 93.203 150.2309
4627.748535 93.018 149.1686
4661.283203 92.825 148.1568
4695.060547 92.625 147.2224
4729.083008 92.414 146.3441
4763.352051 92.196 145.5574
4797.869141 91.976 144.8179
4832.636719 91.747 144.1435
4867.655762 91.519 143.5689
4902.928711 91.284 143.0744
4938.457520 91.047 142.6323
4974.243652 90.811 142.2820
5010.289062 90.568 141.9768
5046.595703 90.328 141.7718
5083.165527 90.087 141.6237
5120.000000 89.848 141.5356
5157.101562 89.610 141.5419
5194.472168 89.375 141.5934
5232.113281 89.147 141.7203
5270.027344 88.911 141.9155
5308.216309 88.684 142.1534
5346.681641 88.458 142.4724
5385.426270 88.242 142.8100
5424.451172 88.023 143.2074
5463.758789 87.815 143.6493
5503.351562 87.610 144.1606
5543.230957 87.408 144.7018
5583.399414 87.211 145.3100
5623.859375 87.017 145.9155
5664.611816 86.829 146.5617
5705.660156 86.647 147.2533
5747.005859 86.465 147.9994
5788.650879 86.288 148.7407
5830.597656 86.113 149.4976
5872.848633 85.944 150.3239
5915.405762 85.773 151.2286
5958.271484 85.602 152.1062
6001.447266 85.422 153.0267
6044.936523 85.231 154.0267
6088.740234 85.007 155.3569
6132.861816 84.795 157.4662
6177.303223 84.802 160.3614
6222.066406 84.994 161.4157
6267.154297 84.996 161.5774
6312.568359 84.904 162.0291
6358.312012 84.793 162.8153
6404.386719 84.691 163.8350
6450.795898 84.608 164.9510
6497.541016 84.525 166.1607
6544.625000 84.455 167.5080
6592.049805 84.404 168.8900
6639.818359 84.379 170.2906
6687.933594 84.356 171.7552
6736.396973 84.347 173.3219
6785.211426 84.362 175.0922
6834.379883 84.416 176.9970
6883.904785 84.555 179.0044
6933.788574 84.787 -179.3244
6984.033691 85.073 -178.3090
7034.642578 85.336 -177.9191
7085.618652 85.542 -177.8298
7136.963867 85.702 -177.8498
7188.681152 85.847 -177.7589
7240.773438 85.997 -177.6522
7293.243164 86.140 -177.5681
7346.092773 86.303 -177.4326
7399.325684 86.468 -177.4738
7452.944336 86.651 -177.5771
7506.951172 86.845 -177.8498
7561.350098 87.047 -178.2884
7616.142578 87.262 -178.8734
7671.332031 87.472 -179.7347
7726.921875 87.689 179.1607
7782.914551 87.896 177.7218
7839.312500 88.090 176.0182
7896.119629 88.247 173.9605
7953.337891 88.370 171.7175
8010.971191 88.457 169.1098
8069.021973 88.481 166.2376
8127.493164 88.437 163.2450
8186.388672 88.322 160.1638
8245.710938 88.132 157.1218
8305.461914 87.862 154.1597
8365.647461 87.533 151.5432
8426.267578 87.142 149.1529
8487.328125 86.713 147.0557
8548.831055 86.244 145.4147
8610.779297 85.748 144.0272
8673.176758 85.249 143.1726
8736.026367 84.744 142.5725
8799.331055 84.227 142.2758
8863.094727 83.722 142.3337
8927.320312 83.235 142.6832
8992.010742 82.751 143.1731
9057.170898 82.280 143.9017
9122.802734 81.814 144.7708
9188.910156 81.359 146.0605
9255.497070 80.937 147.3819
9322.566406 80.519 148.8884
9390.121094 80.107 150.6708
9458.166016 79.710 152.5421
9526.704102 79.339 154.5792
9595.738281 78.942 156.8976
9665.273438 78.625 159.5034
9735.311523 78.294 162.1668
9805.857422 78.014 165.2298
9876.915039 77.753 168.6684
9948.487305 77.540 172.0978
10020.578125 77.345 176.0391
10093.191406 77.247 -179.9437
10166.331055 77.248 -175.7197
10240.000000 77.363 -171.3905
10314.203125 77.578 -166.8876
10388.944336 77.950 -162.6933
10464.226562 78.468 -159.2324
10540.054688 79.134 -156.4107
10616.432617 79.869 -154.8354
10693.363281 80.613 -154.6209
10770.852539 81.319 -155.8481
10848.902344 81.942 -158.1768
10927.517578 82.391 -161.3075
11006.703125 82.693 -164.9927
11086.461914 82.833 -168.8273
11166.798828 82.837 -172.4438
11247.718750 82.734 -175.9629
11329.223633 82.532 -179.2607
11411.320312 82.279 178.0115
11494.011719 81.952 175.6257
11577.301758 81.601 173.4159
11661.195312 81.224 171.5340
11745.697266 80.789 170.0870
11830.811523 80.350 168.8361
11916.542969 79.914 167.8723
12002.894531 79.428 167.2398
12089.873047 78.963 166.7856
12177.480469 78.460 166.6580
12265.723633 77.962 166.5677
12354.606445 77.485 166.9958
12444.132812 76.988 167.7316
12534.308594 76.522 168.5225
12625.136719 76.062 169.7411
12716.624023 75.635 171.4268
12808.773438 75.252 172.7619
12901.591797 74.889 174.0873
12995.082031 74.577 175.4797
13089.250000 74.235 176.5110
13184.099609 73.866 178.0141
13279.636719 73.538 179.5185
13375.867188 73.152 -179.0081
13472.793945 72.828 -177.3393
13570.422852 72.470 -175.6349
13668.759766 72.126 -173.6363
13767.809570 71.781 -171.8027
13867.577148 71.497 -169.9478
13968.067383 71.209 -167.7114
14069.285156 70.937 -165.5560
14171.237305 70.633 -163.3352
14273.927734 70.422 -160.8720
14377.362305 70.213 -158.7720
14481.546875 69.971 -156.5608
14586.486328 69.745 -154.2149
14692.185547 69.566 -152.0535
14798.651367 69.382 -149.7917
14905.888672 69.217 -147.1446
15013.902344 69.001 -144.8145
15122.700195 68.895 -141.7913
15232.285156 68.704 -139.2407
15342.664062 68.651 -136.4109
15453.843750 68.580 -133.1897
15565.829102 68.584 -130.2410
15678.625000 68.667 -127.1370
15792.239258 68.785 -124.8255
15906.675781 68.978 -122.0360
16021.942383 69.012 -120.7113
16138.043945 69.218 -118.4162
16254.986328 69.227 -117.1847
16372.777344 69.272 -115.2796
16491.421875 69.413 -113.5140
16610.923828 69.513 -111.4404
16731.294922 69.733 -109.2720
16852.535156 70.008 -107.1196
16974.656250 70.417 -105.5374
17097.662109 70.816 -105.6391
17221.558594 71.069 -106.3384
17346.353516 71.135 -106.4558
17472.052734 71.307 -104.8029
17598.662109 71.966 -102.7401
17726.189453 72.944 -105.0309
17854.640625 73.618 -110.6188
17984.021484 73.753 -117.8829
18114.341797 73.641 -125.2389
18245.605469 73.125 -132.0065
18377.820312 72.298 -137.7833
18510.994141 71.286 -142.1185
18645.132812 70.121 -144.5132
18780.242188 69.003 -145.5454
18916.332031 67.849 -145.2367
19053.408203 66.816 -144.0307
19191.476562 65.796 -143.2565
19330.546875 64.822 -141.0982
19470.623047 63.757 -139.1561
19611.714844 62.994 -136.4754
19753.830078 61.852 -134.2377
19896.974609 60.489 -132.3078
