* Measurement data measured by REW V5.20.4
* Source: Microphone (BGVP HiFi Audio-T01s), MICROPHONE (Master Volume), R, volume: 0.260
* Format: 256k Log Swept Sine, 1 sweep at -6.0 dBFS with no timing reference
* Dated: 30 May, 2023 12:15:32 AM
* REW Settings:
*  C-weighting compensation: Off
*  Target level: 75.0 dB
* Note: 
* Measurement: HA-FDX1 White R
* Smoothing: None
* Frequency Step: 1/96 octave
* Start Frequency: 0.366 Hz
*
* Freq(Hz) SPL(dB) Phase(degrees)
0.366299 38.112 -131.5044
0.368954 38.108 -131.0937
0.371627 38.103 -130.6644
0.374320 38.098 -130.2162
0.377033 38.094 -129.7490
0.379765 38.089 -129.2628
0.382517 38.084 -128.7573
0.385289 38.080 -128.2325
0.388081 38.075 -127.6882
0.390893 38.070 -127.1242
0.393725 38.065 -126.5406
0.396578 38.060 -125.9372
0.399452 38.055 -125.3139
0.402347 38.050 -124.6706
0.405262 38.045 -124.0072
0.408199 38.040 -123.3236
0.411157 38.035 -122.6198
0.414136 38.030 -121.8957
0.417137 38.025 -121.1513
0.420160 38.020 -120.3864
0.423205 38.014 -119.6010
0.426272 38.009 -118.7952
0.429361 38.004 -117.9688
0.432472 37.998 -117.1219
0.435606 37.993 -116.2545
0.438762 37.988 -115.3665
0.441942 37.982 -114.4580
0.445144 37.977 -113.5290
0.448370 37.971 -112.5795
0.451619 37.965 -111.6095
0.454892 37.960 -110.6192
0.458188 37.954 -109.6085
0.461508 37.948 -108.5776
0.464852 37.943 -107.5266
0.468221 37.937 -106.4555
0.471614 37.931 -105.3646
0.475031 37.925 -104.2538
0.478474 37.919 -103.1234
0.481941 37.913 -101.9736
0.485433 37.907 -100.8045
0.488951 37.901 -99.6162
0.492494 37.895 -98.4092
0.496063 37.889 -97.1835
0.499658 37.883 -95.9394
0.503278 37.876 -94.6772
0.506925 37.870 -93.3972
0.510599 37.864 -92.0997
0.514299 37.857 -90.7850
0.518025 37.851 -89.4535
0.521779 37.845 -88.1055
0.525560 37.838 -86.7416
0.529369 37.832 -85.3619
0.533205 37.825 -83.9671
0.537069 37.818 -82.5577
0.540960 37.812 -81.1340
0.544880 37.805 -79.6967
0.548829 37.798 -78.2463
0.552806 37.791 -76.7833
0.556812 37.784 -75.3084
0.560847 37.777 -73.8223
0.564911 37.770 -72.3255
0.569004 37.763 -70.8189
0.573128 37.756 -69.3032
0.577281 37.749 -67.7791
0.581464 37.742 -66.2475
0.585677 37.735 -64.7091
0.589921 37.727 -63.1650
0.594196 37.720 -61.6160
0.598502 37.712 -60.0631
0.602839 37.705 -58.5073
0.607207 37.697 -56.9497
0.611608 37.690 -55.3913
0.616040 37.682 -53.8334
0.620504 37.675 -52.2770
0.625000 37.667 -50.7235
0.629529 37.659 -49.1741
0.634091 37.651 -47.6301
0.638686 37.643 -46.0931
0.643314 37.635 -44.5643
0.647976 37.627 -43.0453
0.652671 37.619 -41.5376
0.657401 37.611 -40.0430
0.662164 37.603 -38.5630
0.666963 37.595 -37.0993
0.671796 37.586 -35.6539
0.676664 37.578 -34.2285
0.681567 37.569 -32.8252
0.686506 37.561 -31.4458
0.691481 37.552 -30.0926
0.696492 37.544 -28.7675
0.701539 37.535 -27.4730
0.706622 37.526 -26.2112
0.711743 37.517 -24.9845
0.716900 37.509 -23.7955
0.722095 37.500 -22.6467
0.727328 37.491 -21.5407
0.732599 37.485 -20.4802
0.737907 37.597 -19.4512
0.743254 37.718 -18.4397
0.748640 37.848 -17.4458
0.754065 37.987 -16.4696
0.759530 38.135 -15.5113
0.765033 38.291 -14.5709
0.770577 38.456 -13.6484
0.776161 38.630 -12.7439
0.781785 38.812 -11.8575
0.787451 39.003 -10.9891
0.793157 39.202 -10.1389
0.798904 39.409 -9.3068
0.804694 39.625 -8.4928
0.810525 39.848 -7.6970
0.816398 40.080 -6.9192
0.822314 40.319 -6.1595
0.828273 40.566 -5.4178
0.834275 40.820 -4.6940
0.840320 41.081 -3.9880
0.846410 41.350 -3.2998
0.852543 41.626 -2.6293
0.858721 41.908 -1.9762
0.864944 42.196 -1.3405
0.871211 42.491 -0.7219
0.877525 42.792 -0.1204
0.883883 43.098 0.4644
0.890288 43.410 1.0326
0.896740 43.727 1.5845
0.903238 44.049 2.1203
0.909783 44.375 2.6404
0.916376 44.706 3.1451
0.923016 45.040 3.6346
0.929705 45.378 4.1095
0.936442 45.718 4.5700
0.943228 46.062 5.0166
0.950063 46.407 5.4497
0.956947 46.755 5.8698
0.963882 47.103 6.2774
0.970866 47.453 6.6730
0.977902 47.803 7.0573
0.984988 48.152 7.4307
0.992126 48.501 7.7940
0.999315 48.848 8.1478
1.006557 49.193 8.4928
1.013850 49.536 8.8297
1.021197 49.876 9.1594
1.028597 50.211 9.4826
1.036051 50.542 9.8002
1.043558 50.868 10.1131
1.051121 51.187 10.4222
1.058737 51.500 10.7286
1.066409 51.805 11.0332
1.074137 52.101 11.3372
1.081921 52.388 11.6417
1.089761 52.664 11.9479
1.097658 52.929 12.2569
1.105612 53.185 12.5567
1.113623 53.438 12.8269
1.121693 53.687 13.0675
1.129821 53.933 13.2788
1.138009 54.175 13.4613
1.146255 54.414 13.6155
1.154561 54.650 13.7418
1.162928 54.882 13.8407
1.171355 55.111 13.9129
1.179843 55.337 13.9588
1.188393 55.560 13.9792
1.197004 55.780 13.9747
1.205678 55.997 13.9460
1.214415 56.212 13.8940
1.223215 56.423 13.8194
1.232079 56.632 13.7232
1.241007 56.839 13.6062
1.250000 57.043 13.4695
1.259058 57.245 13.3141
1.268182 57.445 13.1410
1.277371 57.642 12.9514
1.286628 57.838 12.7465
1.295951 58.032 12.5276
1.305342 58.225 12.2960
1.314801 58.417 12.0531
1.324329 58.607 11.8004
1.333925 58.796 11.5395
1.343592 58.984 11.2719
1.353328 59.172 10.9992
1.363135 59.360 10.7234
1.373013 59.547 10.4462
1.382962 59.734 10.1695
1.392983 59.922 9.8954
1.403078 60.111 9.6259
1.413245 60.300 9.3633
1.423486 60.490 9.1097
1.433801 60.682 8.8676
1.444191 60.876 8.6395
1.454656 61.072 8.4278
1.465197 61.270 8.2353
1.475815 61.468 8.0483
1.486509 61.665 7.8535
1.497281 61.859 7.6508
1.508131 62.052 7.4404
1.519059 62.243 7.2224
1.530067 62.433 6.9971
1.541154 62.620 6.7645
1.552322 62.806 6.5248
1.563571 62.990 6.2781
1.574901 63.173 6.0247
1.586314 63.354 5.7647
1.597809 63.534 5.4983
1.609387 63.713 5.2258
1.621049 63.890 4.9474
1.632796 64.066 4.6633
1.644628 64.241 4.3738
1.656546 64.414 4.0791
1.668550 64.587 3.7796
1.680641 64.759 3.4755
1.692819 64.930 3.1671
1.705086 65.101 2.8549
1.717442 65.270 2.5390
1.729887 65.440 2.2199
1.742423 65.609 1.8980
1.755049 65.778 1.5736
1.767767 65.947 1.2472
1.780577 66.116 0.9192
1.793480 66.285 0.5901
1.806476 66.454 0.2602
1.819566 66.624 -0.0698
1.832752 66.795 -0.3995
1.846033 66.965 -0.7322
1.859410 67.133 -1.0700
1.872884 67.301 -1.4129
1.886456 67.466 -1.7608
1.900126 67.631 -2.1135
1.913895 67.794 -2.4709
1.927764 67.956 -2.8330
1.941733 68.117 -3.1995
1.955804 68.276 -3.5705
1.969976 68.434 -3.9456
1.984251 68.592 -4.3248
1.998630 68.748 -4.7079
2.013113 68.903 -5.0948
2.027701 69.057 -5.4853
2.042394 69.211 -5.8791
2.057194 69.364 -6.2762
2.072102 69.516 -6.6762
2.087117 69.667 -7.0791
2.102241 69.818 -7.4845
2.117475 69.968 -7.8923
2.132819 70.118 -8.3021
2.148274 70.268 -8.7138
2.163841 70.418 -9.1271
2.179522 70.567 -9.5416
2.195315 70.717 -9.9572
2.211223 70.866 -10.3748
2.227247 71.014 -10.7961
2.243386 71.160 -11.2211
2.259643 71.305 -11.6496
2.276017 71.449 -12.0816
2.292510 71.592 -12.5169
2.309123 71.733 -12.9554
2.325855 71.874 -13.3971
2.342710 72.013 -13.8416
2.359686 72.151 -14.2890
2.376785 72.288 -14.7389
2.394008 72.425 -15.1914
2.411356 72.560 -15.6462
2.428830 72.695 -16.1032
2.446430 72.829 -16.5621
2.464158 72.962 -17.0228
2.482014 73.094 -17.4851
2.500000 73.227 -17.9487
2.518116 73.358 -18.4135
2.536363 73.490 -18.8793
2.554743 73.621 -19.3457
2.573256 73.752 -19.8129
2.591902 73.881 -20.2822
2.610684 74.009 -20.7538
2.629603 74.136 -21.2275
2.648658 74.262 -21.7032
2.667851 74.386 -22.1809
2.687183 74.510 -22.6604
2.706656 74.632 -23.1415
2.726269 74.753 -23.6241
2.746025 74.873 -24.1082
2.765924 74.992 -24.5934
2.785967 75.111 -25.0798
2.806155 75.228 -25.5670
2.826490 75.345 -26.0551
2.846972 75.461 -26.5437
2.867602 75.577 -27.0327
2.888382 75.692 -27.5219
2.909312 75.807 -28.0112
2.930394 75.922 -28.5003
2.951629 76.036 -28.9896
2.973018 76.148 -29.4795
2.994561 76.259 -29.9700
3.016261 76.369 -30.4609
3.038118 76.478 -30.9523
3.060134 76.586 -31.4440
3.082309 76.692 -31.9359
3.104645 76.798 -32.4279
3.127142 76.903 -32.9201
3.149803 77.007 -33.4122
3.172627 77.110 -33.9042
3.195618 77.213 -34.3960
3.218774 77.315 -34.8875
3.242099 77.416 -35.3786
3.265593 77.518 -35.8692
3.289256 77.619 -36.3592
3.313092 77.719 -36.8484
3.337100 77.819 -37.3366
3.361282 77.917 -37.8239
3.385639 78.014 -38.3102
3.410173 78.110 -38.7955
3.434884 78.206 -39.2800
3.459775 78.300 -39.7637
3.484846 78.394 -40.2466
3.510098 78.487 -40.7287
3.535534 78.579 -41.2102
3.561154 78.671 -41.6910
3.586959 78.762 -42.1713
3.612952 78.853 -42.6511
3.639133 78.944 -43.1304
3.665504 79.035 -43.6094
3.692065 79.125 -44.0870
3.718820 79.214 -44.5627
3.745768 79.303 -45.0367
3.772911 79.390 -45.5091
3.800251 79.477 -45.9802
3.827789 79.563 -46.4501
3.855527 79.649 -46.9191
3.883466 79.734 -47.3873
3.911607 79.819 -47.8552
3.939952 79.903 -48.3228
3.968503 79.987 -48.7905
3.997260 80.071 -49.2585
4.026226 80.155 -49.7271
4.055401 80.238 -50.1954
4.084789 80.321 -50.6620
4.114388 80.404 -51.1273
4.144203 80.485 -51.5914
4.174234 80.567 -52.0547
4.204482 80.648 -52.5175
4.234950 80.728 -52.9801
4.265638 80.808 -53.4429
4.296548 80.887 -53.9062
4.327683 80.967 -54.3704
4.359043 81.046 -54.8359
4.390630 81.125 -55.3031
4.422447 81.204 -55.7713
4.454494 81.282 -56.2392
4.486773 81.360 -56.7068
4.519286 81.438 -57.1746
4.552034 81.515 -57.6427
4.585020 81.591 -58.1115
4.618245 81.667 -58.5811
4.651711 81.743 -59.0518
4.685419 81.819 -59.5241
4.719372 81.894 -59.9981
4.753570 81.969 -60.4742
4.788016 82.043 -60.9523
4.822712 82.117 -61.4315
4.857660 82.191 -61.9117
4.892860 82.264 -62.3931
4.928316 82.336 -62.8757
4.964029 82.408 -63.3597
5.000000 82.480 -63.8450
5.036232 82.551 -64.3318
5.072727 82.622 -64.8201
5.109486 82.692 -65.3101
5.146511 82.762 -65.8018
5.183805 82.831 -66.2952
5.221369 82.899 -66.7901
5.259205 82.967 -67.2865
5.297316 83.035 -67.7842
5.335702 83.101 -68.2831
5.374367 83.168 -68.7830
5.413311 83.233 -69.2839
5.452538 83.298 -69.7856
5.492050 83.363 -70.2879
5.531847 83.427 -70.7911
5.571934 83.491 -71.2954
5.612310 83.553 -71.8006
5.652979 83.615 -72.3066
5.693943 83.676 -72.8131
5.735204 83.737 -73.3199
5.776763 83.798 -73.8270
5.818624 83.857 -74.3339
5.860788 83.917 -74.8406
5.903258 83.976 -75.3470
5.946035 84.034 -75.8535
5.989123 84.091 -76.3598
6.032523 84.148 -76.8660
6.076237 84.204 -77.3718
6.120268 84.260 -77.8773
6.164618 84.316 -78.3824
6.209289 84.371 -78.8868
6.254284 84.426 -79.3906
6.299605 84.480 -79.8934
6.345255 84.534 -80.3953
6.391235 84.587 -80.8964
6.437549 84.640 -81.3968
6.484198 84.692 -81.8966
6.531185 84.745 -82.3960
6.578513 84.797 -82.8950
6.626183 84.849 -83.3936
6.674199 84.900 -83.8908
6.722563 84.951 -84.3871
6.771278 85.002 -84.8826
6.820345 85.053 -85.3775
6.869768 85.103 -85.8721
6.919549 85.153 -86.3667
6.969691 85.204 -86.8615
7.020196 85.254 -87.3558
7.071068 85.303 -87.8494
7.122308 85.353 -88.3423
7.173919 85.402 -88.8350
7.225904 85.451 -89.3276
7.278266 85.500 -89.8205
7.331007 85.549 -90.3137
7.384131 85.597 -90.8070
7.437639 85.646 -91.3000
7.491535 85.694 -91.7928
7.545822 85.742 -92.2855
7.600502 85.790 -92.7783
7.655579 85.837 -93.2712
7.711054 85.885 -93.7645
7.766932 85.932 -94.2577
7.823214 85.979 -94.7508
7.879904 86.026 -95.2438
7.937005 86.072 -95.7367
7.994520 86.119 -96.2295
8.052452 86.165 -96.7221
8.110803 86.211 -97.2145
8.169578 86.256 -97.7067
8.228777 86.302 -98.1985
8.288406 86.347 -98.6898
8.348468 86.392 -99.1808
8.408964 86.437 -99.6712
8.469899 86.481 -100.1610
8.531276 86.525 -100.6502
8.593097 86.569 -101.1387
8.655366 86.613 -101.6263
8.718086 86.656 -102.1132
8.781260 86.699 -102.5991
8.844893 86.742 -103.0841
8.908987 86.785 -103.5680
8.973545 86.827 -104.0508
9.038571 86.869 -104.5324
9.104069 86.910 -105.0127
9.170040 86.952 -105.4916
9.236490 86.993 -105.9691
9.303422 87.034 -106.4451
9.370838 87.074 -106.9194
9.438744 87.114 -107.3920
9.507140 87.154 -107.8626
9.576033 87.194 -108.3313
9.645425 87.233 -108.7979
9.715320 87.272 -109.2623
9.785721 87.310 -109.7245
9.856632 87.349 -110.1845
9.928058 87.387 -110.6420
10.000000 87.424 -111.0968
10.072464 87.462 -111.5490
10.145453 87.499 -111.9986
10.218971 87.536 -112.4459
10.293022 87.573 -112.8908
10.367610 87.609 -113.3326
10.442738 87.645 -113.7717
10.518411 87.681 -114.2084
10.594631 87.717 -114.6430
10.671404 87.753 -115.0757
10.748734 87.788 -115.5056
10.826623 87.823 -115.9331
10.905077 87.858 -116.3588
10.984100 87.893 -116.7832
11.063695 87.927 -117.2061
11.143867 87.962 -117.6269
11.224621 87.996 -118.0461
11.305959 88.029 -118.4640
11.387886 88.062 -118.8811
11.470407 88.095 -119.2968
11.553527 88.128 -119.7111
11.637249 88.160 -120.1240
11.721577 88.191 -120.5357
11.806517 88.222 -120.9461
11.892071 88.253 -121.3550
11.978246 88.283 -121.7624
12.065045 88.313 -122.1678
12.152473 88.341 -122.5712
12.240536 88.370 -122.9726
12.329235 88.398 -123.3719
12.418578 88.425 -123.7689
12.508568 88.452 -124.1632
12.599211 88.478 -124.5548
12.690510 88.503 -124.9439
12.782471 88.528 -125.3305
12.875097 88.553 -125.7145
12.968395 88.578 -126.0955
13.062370 88.601 -126.4741
13.157025 88.625 -126.8506
13.252366 88.648 -127.2252
13.348398 88.671 -127.5972
13.445127 88.694 -127.9674
13.542556 88.716 -128.3365
13.640691 88.738 -128.7043
13.739536 88.759 -129.0706
13.839099 88.781 -129.4358
13.939383 88.802 -129.8005
14.040393 88.822 -130.1645
14.142136 88.842 -130.5277
14.244616 88.862 -130.8903
14.347837 88.882 -131.2525
14.451808 88.901 -131.6142
14.556532 88.919 -131.9752
14.662014 88.937 -132.3355
14.768262 88.955 -132.6951
14.875278 88.973 -133.0540
14.983070 88.989 -133.4119
15.091644 89.006 -133.7688
15.201005 89.022 -134.1246
15.311157 89.038 -134.4792
15.422109 89.054 -134.8328
15.533863 89.069 -135.1849
15.646428 89.084 -135.5358
15.759809 89.098 -135.8856
15.874010 89.113 -136.2340
15.989040 89.127 -136.5811
16.104904 89.141 -136.9274
16.221605 89.155 -137.2725
16.339155 89.169 -137.6166
16.457554 89.183 -137.9602
16.576813 89.197 -138.3033
16.696936 89.211 -138.6458
16.817928 89.224 -138.9882
16.939798 89.238 -139.3307
17.062551 89.251 -139.6731
17.186193 89.264 -140.0153
17.310732 89.277 -140.3576
17.436172 89.289 -140.6999
17.562521 89.302 -141.0412
17.689787 89.314 -141.3813
17.817974 89.325 -141.7204
17.947090 89.336 -142.0566
18.077143 89.347 -142.3898
18.208138 89.357 -142.7199
18.340080 89.368 -143.0454
18.472980 89.378 -143.3660
18.606844 89.388 -143.6822
18.741676 89.399 -143.9942
18.877487 89.410 -144.3011
19.014280 89.421 -144.6055
19.152065 89.433 -144.9086
19.290850 89.446 -145.2098
19.430639 89.459 -145.5133
19.571442 89.473 -145.8193
19.713264 89.488 -146.1284
19.856115 89.502 -146.4435
20.000000 89.516 -146.7640
20.144928 89.529 -147.0887
20.290907 89.542 -147.4187
20.437943 89.553 -147.7518
20.586044 89.563 -148.0838
20.735220 89.571 -148.4160
20.885475 89.578 -148.7428
21.036821 89.584 -149.0626
21.189262 89.588 -149.3749
21.342808 89.592 -149.6764
21.497467 89.596 -149.9678
21.653246 89.600 -150.2515
21.810154 89.604 -150.5260
21.968201 89.610 -150.7964
22.127390 89.616 -151.0650
22.287735 89.623 -151.3329
22.449242 89.630 -151.6054
22.611917 89.638 -151.8814
22.775772 89.645 -152.1620
22.940815 89.651 -152.4480
23.107054 89.657 -152.7348
23.274498 89.662 -153.0228
23.443153 89.665 -153.3075
23.613033 89.668 -153.5863
23.784142 89.670 -153.8589
23.956491 89.672 -154.1229
24.130091 89.674 -154.3804
24.304947 89.678 -154.6338
24.481071 89.682 -154.8844
24.658470 89.688 -155.1388
24.837156 89.694 -155.3969
25.017136 89.701 -155.6642
25.198421 89.707 -155.9399
25.381020 89.713 -156.2232
25.564941 89.717 -156.5135
25.750195 89.720 -156.8041
25.936790 89.721 -157.0945
26.124741 89.721 -157.3768
26.314051 89.719 -157.6513
26.504732 89.718 -157.9142
26.696796 89.716 -158.1667
26.890253 89.715 -158.4107
27.085112 89.715 -158.6485
27.281382 89.716 -158.8847
27.479073 89.718 -159.1210
27.678198 89.721 -159.3610
27.878765 89.724 -159.6039
28.080786 89.727 -159.8505
28.284271 89.729 -160.0979
28.489231 89.730 -160.3455
28.695675 89.732 -160.5902
28.903616 89.732 -160.8321
29.113064 89.733 -161.0706
29.324028 89.734 -161.3068
29.536524 89.735 -161.5416
29.750557 89.736 -161.7767
29.966141 89.737 -162.0124
30.183289 89.737 -162.2490
30.402010 89.737 -162.4857
30.622314 89.737 -162.7214
30.844217 89.736 -162.9552
31.067726 89.735 -163.1863
31.292856 89.734 -163.4150
31.519617 89.732 -163.6418
31.748020 89.731 -163.8675
31.978081 89.729 -164.0929
32.209808 89.727 -164.3181
32.443211 89.725 -164.5430
32.678310 89.723 -164.7666
32.915108 89.720 -164.9886
33.153625 89.717 -165.2083
33.393871 89.715 -165.4261
33.635857 89.712 -165.6423
33.879597 89.709 -165.8582
34.125103 89.707 -166.0739
34.372387 89.704 -166.2897
34.621464 89.702 -166.5048
34.872345 89.699 -166.7184
35.125042 89.696 -166.9300
35.379574 89.693 -167.1395
35.635948 89.691 -167.3481
35.894180 89.688 -167.5568
36.154285 89.686 -167.7673
36.416275 89.684 -167.9801
36.680161 89.681 -168.1943
36.945961 89.677 -168.4086
37.213688 89.673 -168.6199
37.483353 89.668 -168.8264
37.754974 89.662 -169.0273
38.028561 89.657 -169.2228
38.304131 89.651 -169.4149
38.581699 89.647 -169.6058
38.861279 89.642 -169.7967
39.142883 89.637 -169.9884
39.426529 89.631 -170.1801
39.712231 89.626 -170.3707
40.000000 89.620 -170.5595
40.289856 89.614 -170.7463
40.581814 89.608 -170.9322
40.875885 89.602 -171.1184
41.172089 89.596 -171.3057
41.470440 89.590 -171.4941
41.770950 89.584 -171.6829
42.073643 89.577 -171.8711
42.378525 89.570 -172.0581
42.685616 89.564 -172.2444
42.994934 89.557 -172.4304
43.306492 89.550 -172.6165
43.620308 89.543 -172.8024
43.936401 89.536 -172.9869
44.254780 89.529 -173.1689
44.575470 89.521 -173.3484
44.898483 89.514 -173.5262
45.223835 89.507 -173.7032
45.551544 89.500 -173.8792
45.881630 89.492 -174.0527
46.214108 89.484 -174.2215
46.548996 89.476 -174.3848
46.886307 89.468 -174.5449
47.226067 89.461 -174.7063
47.568283 89.454 -174.8726
47.912983 89.447 -175.0425
48.260181 89.437 -175.2096
48.609894 89.427 -175.3672
48.962143 89.418 -175.5143
49.316940 89.411 -175.6595
49.674313 89.405 -175.8163
50.034271 89.399 -175.9931
50.396843 89.391 -176.1848
50.762039 89.378 -176.3733
51.129883 89.363 -176.5399
51.500389 89.349 -176.6806
51.873581 89.339 -176.8116
52.249481 89.333 -176.9574
52.628101 89.326 -177.1297
53.009464 89.316 -177.3158
53.393593 89.302 -177.4889
53.780506 89.288 -177.6339
54.170223 89.278 -177.7646
54.562763 89.272 -177.9134
54.958145 89.265 -178.0987
55.356396 89.252 -178.3020
55.757530 89.231 -178.4772
56.161572 89.209 -178.5917
56.568542 89.194 -178.6607
56.978462 89.187 -178.7383
57.391350 89.184 -178.8671
57.807232 89.176 -179.0361
58.226128 89.161 -179.1930
58.648056 89.144 -179.3001
59.073048 89.135 -179.3756
59.501114 89.133 -179.4789
59.932281 89.132 -179.6476
60.366577 89.123 -179.8554
60.804020 89.105 179.9598
61.244629 89.086 179.8298
61.688435 89.073 179.7277
62.135452 89.064 179.6027
62.585712 89.054 179.4429
63.039234 89.038 179.2846
63.496040 89.021 179.1611
63.956161 89.007 179.0600
64.419617 88.996 178.9423
64.886421 88.983 178.8023
65.356621 88.964 178.6799
65.830215 88.946 178.6083
66.307251 88.937 178.5562
66.787743 88.936 178.4558
67.271713 88.933 178.2804
67.759193 88.918 178.0812
68.250206 88.895 177.9257
68.744774 88.874 177.8251
69.242928 88.859 177.7337
69.744690 88.846 177.6196
70.250084 88.831 177.4977
70.759148 88.815 177.3901
71.271896 88.802 177.2852
71.788361 88.790 177.1618
72.308571 88.773 177.0352
72.832550 88.756 176.9380
73.360321 88.743 176.8604
73.891922 88.735 176.7537
74.427376 88.722 176.6043
74.966705 88.701 176.4650
75.509949 88.678 176.3874
76.057121 88.663 176.3448
76.608261 88.654 176.2669
77.163399 88.642 176.1392
77.722557 88.624 176.0137
78.285767 88.605 175.9235
78.853058 88.589 175.8407
79.424461 88.576 175.7319
80.000000 88.558 175.6120
80.579712 88.537 175.5176
81.163628 88.520 175.4499
81.751770 88.507 175.3745
82.344177 88.494 175.2740
82.940880 88.479 175.1648
83.541901 88.460 175.0674
84.147285 88.442 174.9880
84.757050 88.424 174.9206
85.371231 88.409 174.8527
85.989868 88.394 174.7707
86.612984 88.378 174.6776
87.240616 88.359 174.5900
87.872803 88.340 174.5126
88.509560 88.321 174.4351
89.150940 88.302 174.3583
89.796967 88.284 174.2905
90.447670 88.267 174.2238
91.103088 88.251 174.1461
91.763260 88.233 174.0665
92.428215 88.214 173.9981
93.097992 88.196 173.9365
93.772614 88.179 173.8746
94.452133 88.161 173.8144
95.136566 88.144 173.7543
95.825966 88.126 173.6895
96.520363 88.108 173.6252
97.219788 88.089 173.5692
97.924286 88.071 173.5160
98.633881 88.053 173.4526
99.348625 88.034 173.3842
100.068542 88.013 173.3329
100.793686 87.995 173.2957
101.524078 87.979 173.2445
102.259766 87.960 173.1837
103.000778 87.940 173.1419
103.747162 87.923 173.1047
104.498962 87.906 173.0468
105.256203 87.885 172.9915
106.018929 87.864 172.9568
106.787186 87.845 172.9238
107.561012 87.826 172.8883
108.340446 87.807 172.8516
109.125526 87.788 172.8074
109.916290 87.767 172.7694
110.712791 87.747 172.7412
111.515060 87.728 172.7097
112.323143 87.708 172.6847
113.137085 87.691 172.6603
113.956924 87.674 172.6147
114.782700 87.653 172.5716
115.614464 87.634 172.5441
116.452255 87.614 172.5096
117.296112 87.592 172.4912
118.146095 87.573 172.4949
119.002228 87.557 172.4774
119.864563 87.538 172.4477
120.733154 87.517 172.4122
121.608040 87.491 172.3861
122.489258 87.468 172.4008
123.376869 87.451 172.3895
124.270905 87.430 172.3599
125.171425 87.410 172.3527
126.078468 87.391 172.3261
126.992081 87.370 172.3263
127.912323 87.353 172.3286
128.839233 87.333 172.3170
129.772842 87.314 172.3326
130.713242 87.295 172.3188
131.660431 87.271 172.3286
132.614502 87.252 172.3506
133.575485 87.232 172.3424
134.543427 87.212 172.3351
135.518387 87.190 172.3204
136.500412 87.168 172.3337
137.489548 87.150 172.3445
138.485855 87.130 172.3421
139.489380 87.109 172.3611
140.500168 87.090 172.3881
141.518295 87.070 172.3982
142.543793 87.048 172.4302
143.576721 87.029 172.4508
144.617142 87.006 172.4615
145.665100 86.985 172.5023
146.720642 86.966 172.5099
147.783844 86.944 172.5331
148.854752 86.925 172.5456
149.933411 86.900 172.5681
151.019897 86.880 172.6179
152.114243 86.863 172.6410
153.216522 86.842 172.6594
154.326797 86.821 172.7061
155.445114 86.806 172.7452
156.571533 86.787 172.7496
157.706116 86.761 172.8002
158.848923 86.744 172.8647
160.000000 86.718 172.9074
161.159424 86.703 173.0064
162.327255 86.681 173.0010
163.503540 86.660 173.0993
164.688354 86.647 173.0760
165.881760 86.616 173.0727
167.083801 86.590 173.1618
168.294571 86.570 173.1581
169.514099 86.531 173.3143
170.742462 86.532 173.4474
171.979736 86.516 173.4546
173.225967 86.499 173.4755
174.481232 86.479 173.5379
175.745605 86.453 173.5818
177.019119 86.445 173.7337
178.301880 86.419 173.6966
179.593933 86.389 173.8462
180.895340 86.368 173.9679
182.206177 86.348 173.9989
183.526520 86.320 174.1058
184.856430 86.297 174.2114
186.195984 86.294 174.2642
187.545227 86.251 174.3202
188.904266 86.233 174.5096
190.273132 86.219 174.7136
191.651932 86.205 174.7899
193.040726 86.197 174.8911
194.439575 86.163 174.9428
195.848572 86.145 175.1401
197.267761 86.134 175.2883
198.697250 86.120 175.4049
200.137085 86.101 175.5244
201.587372 86.088 175.7138
203.048157 86.076 175.8465
204.519531 86.067 175.9991
206.001556 86.056 176.1388
207.494324 86.048 176.2914
208.997925 86.038 176.4216
210.512405 86.033 176.5988
212.037857 86.031 176.7155
213.574371 86.023 176.8875
215.122025 86.026 176.9742
216.680893 86.009 177.0769
218.251053 86.013 177.2642
219.832581 86.011 177.2633
221.425583 86.002 177.4086
223.030121 86.004 177.4760
224.646286 86.003 177.6581
226.274170 85.998 177.4954
227.913849 85.977 177.6709
229.565399 85.975 177.7337
231.228928 85.986 177.9645
232.904510 85.952 177.7328
234.592224 85.966 178.0957
236.292191 85.947 178.1486
238.004456 85.953 178.0797
239.729126 85.921 178.1430
241.466309 85.930 178.1848
243.216080 85.911 178.3900
244.978516 85.893 178.4120
246.753738 85.883 178.4671
248.541809 85.876 178.5441
250.342850 85.861 178.6262
252.156937 85.845 178.7438
253.984161 85.840 178.8000
255.824646 85.825 178.9036
257.678467 85.811 178.9944
259.545685 85.809 179.0911
261.426483 85.782 179.2414
263.320862 85.780 179.2629
265.229004 85.755 179.3868
267.150970 85.756 179.5178
269.086853 85.729 179.5803
271.036774 85.744 179.6931
273.000824 85.715 179.8397
274.979095 85.695 179.9888
276.971710 85.693 -179.9951
278.978760 85.677 -179.7977
281.000336 85.667 -179.7144
283.036591 85.652 -179.5528
285.087585 85.641 -179.4540
287.153442 85.626 -179.3214
289.234283 85.618 -179.1926
291.330200 85.603 -179.0499
293.441284 85.600 -178.9185
295.567688 85.588 -178.7760
297.709503 85.577 -178.6613
299.866821 85.566 -178.4795
302.039795 85.551 -178.3804
304.228485 85.544 -178.2516
306.433044 85.536 -178.0415
308.653595 85.531 -177.9583
310.890228 85.514 -177.8315
313.143066 85.501 -177.5936
315.412231 85.507 -177.5441
317.697845 85.484 -177.4030
320.000000 85.477 -177.2199
322.318848 85.475 -177.0686
324.654510 85.459 -176.9089
327.007080 85.455 -176.7635
329.376709 85.447 -176.6235
331.763519 85.440 -176.4487
334.167603 85.431 -176.2828
336.589142 85.420 -176.1399
339.028198 85.414 -175.9616
341.484924 85.411 -175.8221
343.959473 85.407 -175.6617
346.451935 85.399 -175.4868
348.962463 85.387 -175.3102
351.491211 85.385 -175.1692
354.038239 85.374 -174.9980
356.603760 85.369 -174.8491
359.187866 85.368 -174.6711
361.790680 85.358 -174.5112
364.412354 85.354 -174.3336
367.053040 85.348 -174.1637
369.712860 85.341 -173.9897
372.391968 85.341 -173.8322
375.090454 85.338 -173.6586
377.808533 85.334 -173.4344
380.546265 85.320 -173.2983
383.303864 85.313 -173.0875
386.081451 85.316 -172.9137
388.879150 85.317 -172.7448
391.697144 85.310 -172.5570
394.535522 85.304 -172.3809
397.394501 85.300 -172.1920
400.274170 85.295 -172.0377
403.174744 85.295 -171.8329
406.096313 85.294 -171.6383
409.039062 85.288 -171.4409
412.003113 85.285 -171.2642
414.988647 85.286 -171.1046
417.995850 85.287 -170.9188
421.024811 85.285 -170.6850
424.075714 85.283 -170.5098
427.148743 85.283 -170.3170
430.244049 85.281 -170.1201
433.361786 85.278 -169.9650
436.502106 85.281 -169.7566
439.665161 85.279 -169.5623
442.851166 85.270 -169.3464
446.060242 85.281 -169.1670
449.292572 85.283 -168.9644
452.548340 85.283 -168.7663
455.827698 85.281 -168.5542
459.130798 85.280 -168.3272
462.457855 85.286 -168.1167
465.809021 85.290 -167.9362
469.184448 85.291 -167.7315
472.584381 85.293 -167.5194
476.008911 85.297 -167.3230
479.458252 85.298 -167.1465
482.932617 85.304 -166.9224
486.432159 85.310 -166.7489
489.957031 85.315 -166.5400
493.507477 85.318 -166.3402
497.083618 85.321 -166.1460
500.685699 85.327 -165.9648
504.313873 85.337 -165.7897
507.968323 85.341 -165.6129
511.649292 85.347 -165.4647
515.356934 85.351 -165.3251
519.091370 85.352 -165.2283
522.852966 85.342 -165.1266
526.641724 85.326 -165.0002
530.458008 85.305 -164.8041
534.301941 85.279 -164.5394
538.173706 85.266 -164.2046
542.073547 85.258 -163.8461
546.001648 85.262 -163.4952
549.958191 85.266 -163.1498
553.943420 85.273 -162.8561
557.957520 85.283 -162.5436
562.000671 85.293 -162.2458
566.073181 85.306 -161.9694
570.175171 85.314 -161.7123
574.306885 85.321 -161.4272
578.468567 85.333 -161.1585
582.660400 85.343 -160.8992
586.882568 85.355 -160.6286
591.135376 85.362 -160.3301
595.419006 85.369 -160.0683
599.733643 85.381 -159.7761
604.079590 85.388 -159.5056
608.456970 85.402 -159.2061
612.866089 85.409 -158.8838
617.307190 85.422 -158.5858
621.780457 85.432 -158.2699
626.286133 85.445 -157.9316
630.824463 85.459 -157.5778
635.395691 85.481 -157.1988
640.000000 85.503 -156.7985
644.637695 85.535 -156.4174
649.309021 85.577 -156.0457
654.014160 85.627 -155.7476
658.753418 85.679 -155.5017
663.527039 85.727 -155.3551
668.335205 85.766 -155.2706
673.178284 85.795 -155.1885
678.056396 85.816 -155.0924
682.969849 85.831 -154.9613
687.918945 85.842 -154.8114
692.903870 85.852 -154.6139
697.924927 85.864 -154.4110
702.982422 85.878 -154.1792
708.076477 85.889 -153.9462
713.207520 85.905 -153.6879
718.375732 85.920 -153.4315
723.581360 85.935 -153.1855
728.824707 85.954 -152.9078
734.106079 85.973 -152.6397
739.425720 85.993 -152.3680
744.783936 86.014 -152.0919
750.180908 86.034 -151.8288
755.617065 86.059 -151.5421
761.092529 86.084 -151.2527
766.607727 86.107 -150.9798
772.162903 86.134 -150.6997
777.758301 86.160 -150.4048
783.394287 86.187 -150.1179
789.071045 86.214 -149.8456
794.789001 86.246 -149.5675
800.548340 86.275 -149.2844
806.349487 86.306 -148.9911
812.192627 86.338 -148.7120
818.078125 86.370 -148.4337
824.006226 86.403 -148.1365
829.977295 86.435 -147.8717
835.991699 86.471 -147.5880
842.049622 86.506 -147.3173
848.151428 86.543 -147.0214
854.297485 86.580 -146.7626
860.488098 86.619 -146.4796
866.723572 86.657 -146.2076
873.004211 86.699 -145.9606
879.330322 86.739 -145.6784
885.702332 86.783 -145.4294
892.120483 86.824 -145.1603
898.585144 86.866 -144.9015
905.096680 86.911 -144.6630
911.655396 86.954 -144.4202
918.261597 87.001 -144.1515
924.915710 87.049 -143.9179
931.618042 87.093 -143.6764
938.368896 87.141 -143.4255
945.168762 87.192 -143.2166
952.017822 87.240 -142.9807
958.916504 87.292 -142.7677
965.865234 87.341 -142.5602
972.864319 87.392 -142.3455
979.914062 87.442 -142.1394
987.014954 87.493 -141.9474
994.167236 87.547 -141.7544
1001.371399 87.598 -141.5546
1008.627747 87.651 -141.3574
1015.936646 87.704 -141.1989
1023.298584 87.758 -141.0259
1030.713867 87.812 -140.8685
1038.182739 87.867 -140.6946
1045.705933 87.918 -140.5392
1053.283447 87.976 -140.3961
1060.916016 88.029 -140.2496
1068.603882 88.083 -140.1149
1076.347412 88.136 -139.9663
1084.147095 88.193 -139.8489
1092.003296 88.247 -139.7196
1099.916382 88.301 -139.6136
1107.886841 88.356 -139.4872
1115.915039 88.410 -139.3756
1124.001343 88.464 -139.2761
1132.146362 88.519 -139.1733
1140.350342 88.575 -139.0712
1148.613770 88.626 -138.9863
1156.937134 88.681 -138.8966
1165.320801 88.734 -138.8092
1173.765137 88.788 -138.7469
1182.270752 88.840 -138.6545
1190.838013 88.895 -138.5891
1199.467285 88.947 -138.4996
1208.159180 88.998 -138.4514
1216.913940 89.050 -138.3536
1225.732178 89.101 -138.3207
1234.614380 89.153 -138.2542
1243.560913 89.207 -138.1884
1252.572266 89.256 -138.1385
1261.648926 89.307 -138.0834
1270.791382 89.357 -138.0413
1280.000000 89.408 -137.9826
1289.275391 89.460 -137.9501
1298.618042 89.509 -137.8837
1308.028320 89.560 -137.8313
1317.506836 89.608 -137.7873
1327.054077 89.659 -137.7497
1336.670410 89.709 -137.7114
1346.356567 89.756 -137.6707
1356.112793 89.804 -137.6295
1365.939697 89.853 -137.5706
1375.837891 89.901 -137.5257
1385.807739 89.954 -137.4888
1395.849854 90.001 -137.4882
1405.964844 90.045 -137.4156
1416.152954 90.094 -137.3812
1426.415039 90.145 -137.3176
1436.751465 90.196 -137.2853
1447.162720 90.241 -137.2659
1457.649414 90.292 -137.1976
1468.212158 90.340 -137.1850
1478.851440 90.387 -137.1416
1489.567871 90.440 -137.0955
1500.361816 90.489 -137.0571
1511.234131 90.540 -137.0634
1522.185059 90.587 -137.0042
1533.215454 90.634 -136.9841
1544.325806 90.683 -136.9364
1555.516602 90.734 -136.8925
1566.788574 90.786 -136.8614
1578.142090 90.836 -136.8396
1589.578003 90.884 -136.8076
1601.096680 90.933 -136.7656
1612.698975 90.981 -136.7163
1624.385254 91.036 -136.6608
1636.156250 91.085 -136.6750
1648.012451 91.135 -136.6510
1659.954590 91.187 -136.6187
1671.983398 91.241 -136.6212
1684.099243 91.297 -136.5260
1696.302856 91.346 -136.5291
1708.594971 91.403 -136.4811
1720.976196 91.453 -136.4691
1733.447144 91.502 -136.4436
1746.008423 91.561 -136.4055
1758.660645 91.619 -136.4182
1771.404663 91.670 -136.3460
1784.240967 91.725 -136.3545
1797.170288 91.783 -136.3369
1810.193359 91.832 -136.3052
1823.310791 91.890 -136.3274
1836.523193 91.953 -136.2636
1849.831421 92.008 -136.2342
1863.236084 92.060 -136.2392
1876.737793 92.123 -136.2141
1890.337524 92.177 -136.2144
1904.035645 92.232 -136.1948
1917.833008 92.291 -136.2041
1931.730469 92.358 -136.1944
1945.728638 92.414 -136.1579
1959.828125 92.481 -136.1935
1974.029907 92.540 -136.2018
1988.334473 92.602 -136.1754
2002.742798 92.659 -136.1894
2017.255493 92.734 -136.2337
2031.873291 92.796 -136.1864
2046.597168 92.855 -136.2203
2061.427734 92.921 -136.2149
2076.365479 92.983 -136.2827
2091.411865 93.051 -136.3056
2106.566895 93.125 -136.3058
2121.832031 93.186 -136.3758
2137.207764 93.255 -136.3959
2152.694824 93.327 -136.4622
2168.294189 93.403 -136.4929
2184.006592 93.461 -136.5439
2199.832764 93.530 -136.5834
2215.773682 93.610 -136.6515
2231.830078 93.676 -136.7221
2248.002686 93.754 -136.7815
2264.292725 93.830 -136.8357
2280.700684 93.904 -136.9193
2297.227539 93.979 -136.9990
2313.874268 94.056 -137.0911
2330.641602 94.129 -137.1926
2347.530273 94.207 -137.2531
2364.541504 94.284 -137.3482
2381.676025 94.366 -137.5240
2398.934570 94.446 -137.6575
2416.318359 94.527 -137.7907
2433.827881 94.617 -137.9260
2451.464355 94.697 -138.0966
2469.228760 94.780 -138.2576
2487.121826 94.864 -138.4527
2505.144531 94.954 -138.6359
2523.297852 95.039 -138.8614
2541.582764 95.126 -139.0703
2560.000000 95.212 -139.2676
2578.550781 95.296 -139.5571
2597.236084 95.387 -139.8003
2616.056641 95.468 -140.0852
2635.013672 95.563 -140.3611
2654.108154 95.647 -140.7097
2673.340820 95.736 -140.9966
2692.713135 95.826 -141.3218
2712.225586 95.907 -141.6897
2731.879395 96.002 -142.0853
2751.675781 96.089 -142.4238
2771.615479 96.178 -142.8250
2791.699707 96.263 -143.2469
2811.929688 96.346 -143.6897
2832.305908 96.426 -144.1783
2852.830078 96.518 -144.6132
2873.502930 96.601 -145.1293
2894.325439 96.680 -145.6531
2915.298828 96.760 -146.2157
2936.424316 96.833 -146.8024
2957.702881 96.907 -147.3479
2979.135742 96.962 -147.8627
3000.723633 97.026 -148.5355
3022.468262 97.076 -149.0352
3044.370117 97.142 -149.8132
3066.430908 97.158 -150.3337
3088.651611 97.243 -150.9084
3111.033203 97.308 -151.8726
3133.577148 97.306 -152.7494
3156.284180 97.271 -153.4180
3179.156006 97.233 -153.8549
3202.193359 97.169 -154.1844
3225.397949 97.075 -154.8150
3248.770508 97.032 -155.8497
3272.312500 97.053 -156.6924
3296.024902 97.016 -157.2496
3319.909180 97.031 -158.1539
3343.966797 97.020 -158.8739
3368.198486 97.020 -159.6849
3392.605713 97.017 -160.4642
3417.189941 97.022 -161.2415
3441.952393 97.007 -162.0197
3466.894287 96.998 -162.7394
3492.016846 96.984 -163.5496
3517.321289 96.985 -164.3486
3542.809326 96.985 -165.0945
3568.481934 96.971 -165.9694
3594.340576 96.969 -166.7040
3620.386719 96.960 -167.4528
3646.621582 96.955 -168.2856
3673.046387 96.947 -169.0799
3699.662842 96.936 -169.7770
3726.472168 96.939 -170.4291
3753.475586 96.925 -171.2649
3780.675049 96.930 -172.0065
3808.071289 96.943 -172.7666
3835.666016 96.936 -173.5145
3863.460938 96.918 -174.2109
3891.457275 96.922 -174.9962
3919.656250 96.921 -175.6485
3948.059814 96.892 -176.3787
3976.668945 96.903 -177.0895
4005.485596 96.903 -177.8164
4034.510986 96.893 -178.5314
4063.746582 96.896 -179.2667
4093.194336 96.898 -179.9729
4122.855469 96.874 179.3882
4152.730957 96.879 178.6825
4182.823730 96.876 177.9636
4213.133789 96.872 177.2044
4243.664062 96.867 176.4753
4274.415527 96.852 175.8207
4305.389648 96.825 175.1483
4336.588379 96.817 174.3214
4368.013184 96.807 173.5558
4399.665527 96.790 172.7852
4431.547363 96.774 172.0946
4463.660156 96.749 171.3625
4496.005371 96.731 170.5875
4528.585449 96.708 169.8466
4561.401367 96.686 169.0270
4594.455078 96.658 168.2467
4627.748535 96.619 167.5254
4661.283203 96.583 166.7581
4695.060547 96.537 165.9990
4729.083008 96.493 165.2722
4763.352051 96.433 164.4930
4797.869141 96.369 163.8086
4832.636719 96.292 163.0357
4867.655762 96.198 162.3598
4902.928711 96.090 161.7197
4938.457520 95.970 161.1376
4974.243652 95.831 160.5157
5010.289062 95.702 159.8932
5046.595703 95.565 159.3333
5083.165527 95.421 158.7826
5120.000000 95.278 158.2751
5157.101562 95.126 157.7815
5194.472168 94.972 157.3698
5232.113281 94.814 156.9430
5270.027344 94.654 156.5784
5308.216309 94.491 156.2557
5346.681641 94.324 155.9636
5385.426270 94.153 155.7368
5424.451172 93.982 155.5515
5463.758789 93.803 155.4494
5503.351562 93.631 155.3498
5543.230957 93.452 155.3224
5583.399414 93.280 155.3797
5623.859375 93.104 155.4827
5664.611816 92.930 155.6601
5705.660156 92.758 155.9037
5747.005859 92.591 156.2114
5788.650879 92.434 156.5388
5830.597656 92.278 156.9567
5872.848633 92.131 157.3905
5915.405762 91.990 157.8372
5958.271484 91.857 158.3068
6001.447266 91.722 158.7749
6044.936523 91.595 159.2726
6088.740234 91.465 159.7870
6132.861816 91.340 160.3289
6177.303223 91.215 160.9216
6222.066406 91.093 161.5493
6267.154297 90.968 162.2120
6312.568359 90.848 162.9906
6358.312012 90.741 163.8395
6404.386719 90.651 164.7732
6450.795898 90.575 165.6828
6497.541016 90.508 166.6220
6544.625000 90.447 167.5383
6592.049805 90.401 168.4878
6639.818359 90.360 169.5192
6687.933594 90.332 170.4803
6736.396973 90.315 171.4915
6785.211426 90.317 172.5129
6834.379883 90.326 173.5508
6883.904785 90.356 174.5959
6933.788574 90.401 175.6309
6984.033691 90.469 176.6750
7034.642578 90.553 177.6343
7085.618652 90.671 178.5813
7136.963867 90.805 179.4800
7188.681152 90.964 -179.7740
7240.773438 91.143 -179.1162
7293.243164 91.340 -178.5468
7346.092773 91.564 -178.1882
7399.325684 91.814 -178.0215
7452.944336 92.073 -178.1205
7506.951172 92.344 -178.4577
7561.350098 92.628 -178.9836
7616.142578 92.922 -179.8104
7671.332031 93.223 179.0003
7726.921875 93.530 177.4480
7782.914551 93.828 175.4583
7839.312500 94.102 173.0104
7896.119629 94.351 170.0602
7953.337891 94.541 166.5435
8010.971191 94.646 162.5493
8069.021973 94.641 158.2376
8127.493164 94.519 153.8175
8186.388672 94.279 149.4528
8245.710938 93.924 145.3371
8305.461914 93.475 141.6367
8365.647461 92.941 138.4492
8426.267578 92.360 135.8246
8487.328125 91.744 133.8055
8548.831055 91.110 132.3000
8610.779297 90.479 131.3632
8673.176758 89.854 130.8287
8736.026367 89.250 130.7214
8799.331055 88.669 130.9833
8863.094727 88.112 131.4824
8927.320312 87.584 132.2248
8992.010742 87.082 133.2089
9057.170898 86.605 134.3167
9122.802734 86.146 135.6607
9188.910156 85.720 137.1130
9255.497070 85.317 138.6296
9322.566406 84.930 140.3293
9390.121094 84.574 142.0604
9458.166016 84.231 143.9142
9526.704102 83.916 145.8014
9595.738281 83.610 147.7719
9665.273438 83.345 149.8867
9735.311523 83.088 151.8426
9805.857422 82.864 153.9644
9876.915039 82.639 156.1222
9948.487305 82.458 158.2057
10020.578125 82.287 160.2253
10093.191406 82.131 162.3251
10166.331055 81.975 164.4581
10240.000000 81.857 166.4684
10314.203125 81.742 168.5667
10388.944336 81.649 170.5703
10464.226562 81.574 172.6096
10540.054688 81.508 174.5030
10616.432617 81.455 176.3423
10693.363281 81.405 178.2265
10770.852539 81.372 -179.9990
10848.902344 81.353 -178.1983
10927.517578 81.338 -176.5127
11006.703125 81.343 -174.8850
11086.461914 81.340 -173.2777
11166.798828 81.357 -171.6426
11247.718750 81.368 -170.1743
11329.223633 81.377 -168.6486
11411.320312 81.419 -167.2517
11494.011719 81.470 -165.9203
11577.301758 81.493 -164.6145
11661.195312 81.567 -163.3886
11745.697266 81.608 -162.0973
11830.811523 81.672 -160.9491
11916.542969 81.762 -159.8233
12002.894531 81.839 -158.7354
12089.873047 81.944 -157.7195
12177.480469 82.042 -156.8790
12265.723633 82.172 -156.0902
12354.606445 82.308 -155.4171
12444.132812 82.447 -154.8345
12534.308594 82.610 -154.5053
12625.136719 82.782 -154.3197
12716.624023 82.955 -154.4141
12808.773438 83.109 -154.7099
12901.591797 83.271 -155.3200
12995.082031 83.418 -156.1720
13089.250000 83.549 -157.2881
13184.099609 83.656 -158.7196
13279.636719 83.727 -160.3978
13375.867188 83.716 -162.3799
13472.793945 83.664 -164.5386
13570.422852 83.526 -166.8432
13668.759766 83.335 -169.0484
13767.809570 83.063 -171.2178
13867.577148 82.731 -173.2086
13968.067383 82.334 -174.8346
14069.285156 81.884 -176.1752
14171.237305 81.422 -177.1646
14273.927734 80.908 -177.6493
14377.362305 80.401 -177.8237
14481.546875 79.891 -177.5161
14586.486328 79.384 -176.9785
14692.185547 78.899 -176.0762
14798.651367 78.433 -174.7564
14905.888672 77.954 -173.2118
15013.902344 77.532 -171.4888
15122.700195 77.149 -169.4733
15232.285156 76.822 -167.2410
15342.664062 76.502 -164.8416
15453.843750 76.229 -162.1992
15565.829102 76.005 -159.4333
15678.625000 75.871 -156.7635
15792.239258 75.780 -154.1009
15906.675781 75.713 -151.4090
16021.942383 75.828 -149.0286
16138.043945 75.841 -146.4688
16254.986328 76.033 -144.3022
16372.777344 76.282 -142.4533
16491.421875 76.580 -140.8145
16610.923828 76.924 -139.8723
16731.294922 77.422 -140.2720
16852.535156 77.981 -141.5951
16974.656250 78.553 -144.9275
17097.662109 78.959 -150.2697
17221.558594 79.080 -157.8764
17346.353516 78.766 -166.4884
17472.052734 77.925 -174.5195
17598.662109 76.689 179.4684
17726.189453 75.248 175.2945
17854.640625 73.613 174.1517
17984.021484 72.130 175.1215
18114.341797 70.766 177.4496
18245.605469 69.558 -178.5352
18377.820312 68.402 -174.1522
18510.994141 67.350 -170.0569
18645.132812 66.608 -164.1096
18780.242188 65.778 -158.3862
18916.332031 65.089 -153.3277
19053.408203 64.462 -147.6249
19191.476562 63.857 -143.3050
19330.546875 63.232 -136.7914
19470.623047 62.755 -131.1171
19611.714844 62.497 -126.5981
19753.830078 61.504 -120.0682
19896.974609 60.907 -115.0624
