* Measurement data measured by REW V5.20.4
* Source: Microphone (2- KM-HIFI-384KHZ), MICROPHONE (Master Volume), R, volume: 0.250
* Format: 256k Log Swept Sine, 1 sweep at -6.0 dBFS with no timing reference
* Dated: 23 Mar, 2022 6:18:47 PM
* REW Settings:
*  C-weighting compensation: Off
*  Target level: 75.0 dB
* Note: 
* Measurement: Galaxy Buds Pro R
* Smoothing: None
* Frequency Step: 1/48 octave
* Start Frequency: 20.000 Hz
*
* Freq(Hz)	SPL(dB)	Phase(degrees)
20.000000	97.480	-145.7386
20.299999	97.519	-146.4697
20.600000	97.553	-147.1987
20.900000	97.581	-147.9114
21.200001	97.607	-148.5950
21.400000	97.624	-149.0325
21.799999	97.658	-149.8724
22.000000	97.676	-150.2810
22.400000	97.713	-151.0913
22.700001	97.740	-151.6998
23.000000	97.765	-152.3074
23.299999	97.786	-152.9061
23.600000	97.806	-153.4882
24.000000	97.830	-154.2315
24.299999	97.849	-154.7658
24.700001	97.874	-155.4562
25.000000	97.894	-155.9648
25.400000	97.919	-156.6362
25.799999	97.943	-157.2983
26.200001	97.966	-157.9459
26.500000	97.982	-158.4206
26.900000	98.001	-159.0415
27.200001	98.013	-159.5027
27.600000	98.028	-160.1174
28.000000	98.041	-160.7328
28.500000	98.051	-161.4897
29.000000	98.057	-162.2061
29.500000	98.061	-162.8696
30.000000	98.070	-163.5005
30.400000	98.081	-164.0057
30.700001	98.090	-164.3918
31.100000	98.099	-164.9116
31.500000	98.105	-165.4237
32.000000	98.111	-166.0348
32.500000	98.117	-166.6176
33.000000	98.125	-167.1959
33.500000	98.128	-167.7827
34.000000	98.129	-168.3668
34.500000	98.131	-168.9307
35.000000	98.133	-169.4724
35.500000	98.136	-170.0030
36.000000	98.138	-170.5288
36.500000	98.140	-171.0460
37.000000	98.140	-171.5498
37.500000	98.141	-172.0435
38.200001	98.141	-172.7316
38.700001	98.135	-173.2214
39.500000	98.121	-173.9762
40.000000	98.111	-174.4209
40.599998	98.102	-174.9386
41.200001	98.093	-175.4572
41.799999	98.081	-175.9713
42.500000	98.067	-176.5423
43.099998	98.058	-177.0165
43.700001	98.049	-177.5014
44.400002	98.036	-178.0666
45.000000	98.022	-178.5238
45.500000	98.013	-178.8962
46.200001	97.999	-179.4293
46.799999	97.982	-179.8743
47.500000	97.964	179.6463
48.200001	97.950	179.1504
48.700001	97.935	178.7797
49.400002	97.906	178.3214
50.000000	97.889	177.9926
50.799999	97.880	177.4766
51.500000	97.858	176.9579
52.200001	97.829	176.5434
53.000000	97.815	176.1012
53.799999	97.796	175.5212
54.500000	97.759	175.0790
55.200001	97.731	174.7552
56.000000	97.712	174.3245
57.000000	97.673	173.7495
58.000000	97.636	173.2872
59.000000	97.607	172.7762
60.000000	97.566	172.2368
60.799999	97.529	171.8364
61.500000	97.500	171.5309
62.200001	97.473	171.2235
63.000000	97.441	170.8940
64.000000	97.418	170.5180
65.000000	97.393	169.9298
66.000000	97.335	169.4571
67.000000	97.302	169.0681
68.000000	97.251	168.5529
69.000000	97.198	168.2425
70.000000	97.169	167.8392
71.000000	97.119	167.4003
72.000000	97.077	167.0854
73.000000	97.042	166.7114
74.000000	97.001	166.3530
75.000000	96.964	166.0018
76.199997	96.908	165.5829
77.500000	96.855	165.2461
78.800003	96.799	164.8131
80.000000	96.746	164.5610
81.199997	96.714	164.1617
82.500000	96.647	163.7183
83.800003	96.591	163.3816
85.000000	96.540	163.0672
86.199997	96.490	162.7470
87.500000	96.434	162.4468
88.500000	96.395	162.2096
90.000000	96.332	161.8648
91.199997	96.279	161.6003
92.500000	96.226	161.3466
93.800003	96.172	161.0609
95.000000	96.122	160.8155
96.199997	96.073	160.5792
97.500000	96.020	160.3176
98.800003	95.965	160.0950
100.000000	95.918	159.8894
101.500000	95.855	159.6425
103.000000	95.799	159.4004
104.400002	95.736	159.1522
106.000000	95.675	158.9502
107.500000	95.612	158.7074
109.000000	95.549	158.5074
110.599998	95.484	158.3148
112.000000	95.427	158.1554
113.800003	95.353	157.9207
115.000000	95.301	157.8198
117.199997	95.220	157.5925
118.000000	95.185	157.4883
120.599998	95.083	157.2429
122.000000	95.028	157.1233
124.099998	94.953	156.9598
125.000000	94.918	156.8876
126.500000	94.861	156.8123
128.000000	94.807	156.7021
131.500000	94.684	156.4629
132.000000	94.664	156.4261
134.000000	94.591	156.3345
136.000000	94.523	156.2441
138.000000	94.452	156.1678
140.000000	94.384	156.0895
143.000000	94.284	155.9946
145.000000	94.218	155.9370
147.500000	94.133	155.8836
150.000000	94.055	155.8364
152.500000	93.972	155.8263
155.000000	93.884	155.7742
157.500000	93.802	155.7963
160.000000	93.722	155.7677
162.500000	93.641	155.7937
165.000000	93.562	155.8096
167.500000	93.481	155.8362
170.000000	93.406	155.8871
172.500000	93.335	155.9484
175.000000	93.268	155.9818
177.500000	93.202	156.0489
180.000000	93.133	156.0150
182.500000	93.064	156.1274
185.000000	92.999	156.2410
187.500000	92.949	156.3335
190.000000	92.883	156.4335
192.500000	92.822	156.4954
195.000000	92.764	156.6175
197.500000	92.714	156.6975
200.000000	92.659	156.8308
203.000000	92.600	156.9205
206.000000	92.539	157.0654
209.000000	92.475	157.2122
212.000000	92.418	157.3310
214.000000	92.377	157.4360
218.000000	92.298	157.6884
220.000000	92.256	157.7932
224.000000	92.181	157.9675
227.000000	92.126	158.1469
230.000000	92.065	158.3244
233.000000	92.014	158.4308
236.000000	91.964	158.6503
240.000000	91.891	158.8499
243.000000	91.839	159.0342
247.000000	91.784	159.2392
250.000000	91.735	159.4264
254.000000	91.679	159.7178
258.000000	91.631	159.8980
262.000000	91.565	160.2061
265.000000	91.520	160.3945
269.000000	91.473	160.6151
272.000000	91.432	160.8220
276.000000	91.376	161.0909
280.000000	91.327	161.2869
285.000000	91.261	161.6164
290.000000	91.198	161.9659
295.000000	91.143	162.2827
300.000000	91.081	162.5437
304.000000	91.040	162.8165
307.000000	91.003	163.0094
311.000000	90.962	163.2625
315.000000	90.920	163.4917
320.000000	90.867	163.8156
325.000000	90.814	164.1483
330.000000	90.764	164.4230
335.000000	90.714	164.7243
340.000000	90.673	165.0323
345.000000	90.631	165.3144
350.000000	90.598	165.5932
355.000000	90.550	165.9239
360.000000	90.512	166.2325
365.000000	90.473	166.5121
370.000000	90.436	166.8206
375.000000	90.401	167.0971
382.000000	90.347	167.5006
387.000000	90.311	167.7968
395.000000	90.255	168.2084
400.000000	90.225	168.5061
406.000000	90.183	168.8505
412.000000	90.145	169.1984
418.000000	90.107	169.4850
425.000000	90.064	169.8997
431.000000	90.027	170.1946
437.000000	89.986	170.5222
444.000000	89.943	170.9017
450.000000	89.905	171.2480
455.000000	89.879	171.4838
462.000000	89.839	171.8406
468.000000	89.805	172.1655
475.000000	89.765	172.5191
482.000000	89.726	172.8799
487.000000	89.702	173.1291
494.000000	89.672	173.4826
500.000000	89.638	173.8329
508.000000	89.602	174.1897
515.000000	89.571	174.5417
522.000000	89.535	174.8964
530.000000	89.497	175.2958
538.000000	89.463	175.6749
545.000000	89.426	176.0212
552.000000	89.389	176.3633
560.000000	89.355	176.7550
570.000000	89.307	177.2527
580.000000	89.255	177.7934
590.000000	89.206	178.2612
600.000000	89.157	178.8151
608.000000	89.114	179.2007
615.000000	89.076	179.5742
622.000000	89.032	179.9520
630.000000	88.982	-179.6184
640.000000	88.918	-179.0558
650.000000	88.852	-178.4769
660.000000	88.767	-177.7431
670.000000	88.693	-176.9025
680.000000	88.628	-175.9317
690.000000	88.589	-174.7518
700.000000	88.600	-173.6096
710.000000	88.637	-172.6273
720.000000	88.693	-171.9292
730.000000	88.738	-171.4240
740.000000	88.757	-171.0827
750.000000	88.751	-170.7484
762.000000	88.747	-170.2877
775.000000	88.713	-169.7365
788.000000	88.685	-169.0893
800.000000	88.646	-168.3545
812.000000	88.625	-167.7872
825.000000	88.596	-167.0240
838.000000	88.573	-166.2754
850.000000	88.562	-165.5948
862.000000	88.545	-164.7966
875.000000	88.543	-164.0041
885.000000	88.539	-163.4006
900.000000	88.526	-162.5019
912.000000	88.539	-161.7801
925.000000	88.545	-161.0675
938.000000	88.554	-160.2550
950.000000	88.567	-159.6308
962.000000	88.583	-158.9294
975.000000	88.606	-158.2437
988.000000	88.633	-157.6160
1000.000000	88.650	-156.9504
1015.000000	88.695	-156.2056
1030.000000	88.724	-155.5028
1044.000000	88.760	-154.8286
1060.000000	88.800	-154.0759
1075.000000	88.837	-153.4004
1090.000000	88.858	-152.7423
1106.000000	88.883	-152.0475
1120.000000	88.901	-151.4804
1138.000000	88.927	-150.7240
1150.000000	88.944	-150.2096
1172.000000	88.969	-149.2980
1180.000000	88.981	-148.9806
1206.000000	89.017	-147.9120
1220.000000	89.060	-147.3828
1241.000000	89.128	-146.4644
1250.000000	89.169	-146.1153
1265.000000	89.222	-145.4307
1280.000000	89.274	-144.7900
1315.000000	89.411	-143.3291
1320.000000	89.432	-143.0937
1340.000000	89.507	-142.2149
1360.000000	89.642	-141.2854
1380.000000	89.738	-140.4156
1400.000000	89.843	-139.5805
1430.000000	89.998	-138.2406
1450.000000	90.109	-137.4250
1475.000000	90.253	-136.2490
1500.000000	90.407	-135.1478
1525.000000	90.564	-134.0912
1550.000000	90.693	-132.9941
1575.000000	90.857	-131.9943
1600.000000	91.016	-131.0376
1625.000000	91.170	-130.0571
1650.000000	91.325	-129.1244
1675.000000	91.515	-128.3155
1700.000000	91.693	-127.4197
1725.000000	91.874	-126.7040
1750.000000	92.066	-126.0236
1775.000000	92.267	-125.3955
1800.000000	92.469	-124.8555
1825.000000	92.672	-124.2631
1850.000000	92.870	-123.8035
1875.000000	93.089	-123.4184
1900.000000	93.306	-123.1170
1925.000000	93.505	-122.8338
1950.000000	93.713	-122.6714
1975.000000	93.922	-122.5196
2000.000000	94.130	-122.5233
2030.000000	94.368	-122.4960
2060.000000	94.603	-122.6161
2090.000000	94.842	-122.8027
2120.000000	95.066	-123.1083
2140.000000	95.218	-123.3618
2180.000000	95.504	-123.9376
2200.000000	95.649	-124.3372
2240.000000	95.896	-125.1437
2270.000000	96.076	-125.8532
2300.000000	96.250	-126.5484
2330.000000	96.401	-127.3766
2360.000000	96.551	-128.2260
2400.000000	96.724	-129.3459
2430.000000	96.830	-130.3126
2470.000000	96.960	-131.5276
2500.000000	97.039	-132.4700
2540.000000	97.127	-133.6629
2580.000000	97.190	-134.8322
2620.000000	97.237	-135.9266
2650.000000	97.263	-136.7248
2690.000000	97.275	-137.7014
2720.000000	97.283	-138.3613
2760.000000	97.277	-139.2208
2800.000000	97.266	-139.9098
2850.000000	97.244	-140.7157
2900.000000	97.214	-141.3825
2950.000000	97.187	-141.9181
3000.000000	97.165	-142.3699
3040.000000	97.142	-142.6711
3070.000000	97.129	-142.8911
3110.000000	97.108	-143.1095
3150.000000	97.096	-143.3447
3200.000000	97.085	-143.4570
3250.000000	97.075	-143.6887
3300.000000	97.074	-143.8472
3350.000000	97.059	-143.9955
3400.000000	97.061	-144.1064
3450.000000	97.068	-144.0968
3500.000000	97.086	-144.1124
3550.000000	97.107	-144.1956
3600.000000	97.141	-144.3234
3650.000000	97.169	-144.4842
3700.000000	97.188	-144.6304
3750.000000	97.210	-144.8077
3820.000000	97.233	-145.0876
3870.000000	97.251	-145.2953
3950.000000	97.278	-145.5835
4000.000000	97.303	-145.7200
4060.000000	97.313	-146.0144
4120.000000	97.334	-146.2533
4180.000000	97.363	-146.5118
4250.000000	97.400	-146.8787
4310.000000	97.426	-147.1419
4370.000000	97.458	-147.5251
4440.000000	97.495	-148.0290
4500.000000	97.528	-148.4608
4550.000000	97.540	-148.9246
4620.000000	97.570	-149.5347
4680.000000	97.581	-150.1007
4750.000000	97.587	-150.7510
4820.000000	97.584	-151.5132
4870.000000	97.572	-152.0567
4940.000000	97.534	-152.7901
5000.000000	97.493	-153.4129
5080.000000	97.432	-154.2708
5150.000000	97.366	-154.9527
5220.000000	97.287	-155.6430
5300.000000	97.191	-156.3239
5380.000000	97.072	-156.9600
5450.000000	96.963	-157.4382
5520.000000	96.842	-157.8432
5600.000000	96.691	-158.2707
5700.000000	96.506	-158.6508
5800.000000	96.313	-158.8556
5900.000000	96.123	-158.9420
6000.000000	95.947	-158.8039
6080.000000	95.821	-158.6515
6150.000000	95.720	-158.4733
6220.000000	95.620	-158.2003
6300.000000	95.521	-157.8657
6400.000000	95.406	-157.3763
6500.000000	95.317	-156.8403
6600.000000	95.234	-156.2426
6700.000000	95.179	-155.6249
6800.000000	95.147	-155.0309
6900.000000	95.176	-154.4094
7000.000000	95.286	-153.7245
7100.000000	95.429	-153.1750
7200.000000	95.609	-152.7128
7300.000000	95.823	-152.4027
7400.000000	96.078	-152.2132
7500.000000	96.368	-152.3548
7620.000000	96.781	-152.9489
7750.000000	97.390	-154.4469
7880.000000	97.872	-157.4315
8000.000000	98.285	-161.9473
8120.000000	98.496	-168.5419
8250.000000	98.258	-176.6682
8380.000000	97.521	176.0862
8500.000000	96.577	171.5529
8620.000000	95.586	169.2191
8750.000000	94.556	168.3659
8850.000000	93.857	168.5209
9000.000000	92.900	169.7769
9120.000000	92.256	171.4108
9250.000000	91.662	173.4238
9380.000000	91.178	175.6706
9500.000000	90.799	177.7979
9620.000000	90.470	-179.8776
9750.000000	90.200	-177.5740
9880.000000	90.002	-175.0581
10000.000000	89.893	-172.7628
10150.000000	89.829	-170.0101
10300.000000	89.868	-167.2071
10440.000000	89.980	-165.3447
10600.000000	90.198	-163.1868
10750.000000	90.478	-161.7941
10900.000000	90.809	-160.8698
11060.000000	91.292	-159.7721
11200.000000	91.865	-160.0225
11380.000000	92.622	-162.2541
11500.000000	93.087	-164.6353
11720.000000	93.903	-171.1145
11800.000000	94.161	-174.1275
12060.000000	94.692	173.1666
12200.000000	94.744	164.3932
12410.000000	94.013	148.0103
12500.000000	93.225	141.4041
12650.000000	91.443	134.2369
12800.000000	89.614	132.3440
13150.000000	86.576	137.4707
13200.000000	86.262	138.4516
13400.000000	85.197	143.0141
13600.000000	84.473	147.8016
13800.000000	83.944	152.9756
14000.000000	83.692	157.6104
14300.000000	83.611	163.9566
14500.000000	83.717	167.6834
14750.000000	84.051	171.7669
15000.000000	84.818	175.3603
15250.000000	86.281	172.9982
15500.000000	86.640	160.7045
15750.000000	85.153	154.8719
16000.000000	84.296	159.1423
16250.000000	84.639	162.5109
16500.000000	85.436	160.1722
16750.000000	85.873	152.7441
17000.000000	85.776	143.3141
17250.000000	85.129	133.9660
17500.000000	83.935	125.6851
17750.000000	82.333	119.8844
18000.000000	80.690	117.5740
18250.000000	79.177	116.4970
18500.000000	77.928	118.5193
18750.000000	76.993	120.9286
19000.000000	76.230	122.9944
19250.000000	75.772	125.3202
19500.000000	75.585	127.2817
19750.000000	75.594	126.1012
