* Measurement data measured by REW V5.20.4
* Source: C:\Users\topge\AutoEq\compensation\harman_in-ear_2016.csv
* Format: Comma/Tab/Space delimited data
* Dated: 18 Dec, 2021 1:17:41 AM
* REW Settings:
*  C-weighting compensation: Off
*  Target level: 75.0 dB
* Note: Measurement imported from C:\Users\topge\AutoEq\compensation\harman_in-ear_2016.csv Format: Comma/Tab/Space delimited data 695 values loaded, 20 Hz to 19,896 Hz log spaced
* Measurement: harman_in-ear_2016
* Smoothing: 1/48 octave
* Frequency Step: 1/48 octave
* Start Frequency: 20.000 Hz
*
* Freq(Hz)	SPL(dB)
20.000000	6.890
20.299999	6.910
20.600000	6.930
20.900000	6.955
21.200001	6.969
21.400000	6.970
21.799999	6.987
22.000000	6.991
22.400000	6.990
22.700001	6.990
23.000000	6.990
23.299999	7.007
23.600000	7.026
24.000000	7.054
24.299999	7.065
24.700001	7.092
25.000000	7.109
25.400000	7.130
25.799999	7.151
26.200001	7.170
26.500000	7.172
26.900000	7.188
27.200001	7.190
27.600000	7.190
28.000000	7.190
28.500000	7.206
29.000000	7.224
29.500000	7.242
30.000000	7.268
30.400000	7.280
30.700001	7.281
31.100000	7.291
31.500000	7.290
32.000000	7.290
32.500000	7.290
33.000000	7.290
33.500000	7.290
34.000000	7.290
34.500000	7.290
35.000000	7.290
35.500000	7.290
36.000000	7.290
36.500000	7.290
37.000000	7.290
37.500000	7.290
38.200001	7.290
38.700001	7.290
39.500000	7.290
40.000000	7.290
40.599998	7.290
41.200001	7.290
41.799999	7.290
42.500000	7.290
43.099998	7.290
43.700001	7.290
44.400002	7.290
45.000000	7.290
45.500000	7.290
46.200001	7.290
46.799999	7.290
47.500000	7.290
48.200001	7.290
48.700001	7.290
49.400002	7.282
50.000000	7.269
50.799999	7.253
51.500000	7.239
52.200001	7.211
53.000000	7.191
53.799999	7.151
54.500000	7.118
55.200001	7.079
56.000000	7.036
57.000000	6.983
58.000000	6.931
59.000000	6.889
60.000000	6.838
60.799999	6.798
61.500000	6.763
62.200001	6.729
63.000000	6.701
64.000000	6.653
65.000000	6.606
66.000000	6.560
67.000000	6.520
68.000000	6.481
69.000000	6.436
70.000000	6.401
71.000000	6.336
72.000000	6.281
73.000000	6.224
74.000000	6.160
75.000000	6.098
76.199997	6.039
77.500000	5.965
78.800003	5.889
80.000000	5.827
81.199997	5.760
82.500000	5.665
83.800003	5.570
85.000000	5.489
86.199997	5.411
87.500000	5.307
88.500000	5.227
90.000000	5.109
91.199997	5.016
92.500000	4.907
93.800003	4.795
95.000000	4.694
96.199997	4.584
97.500000	4.464
98.800003	4.353
100.000000	4.251
101.500000	4.120
103.000000	3.996
104.400002	3.874
106.000000	3.747
107.500000	3.618
109.000000	3.480
110.599998	3.324
112.000000	3.196
113.800003	3.044
115.000000	2.942
117.199997	2.750
118.000000	2.682
120.599998	2.463
122.000000	2.347
124.099998	2.176
125.000000	2.103
126.500000	1.983
128.000000	1.865
131.500000	1.593
132.000000	1.555
134.000000	1.404
136.000000	1.255
138.000000	1.109
140.000000	0.963
143.000000	0.768
145.000000	0.651
147.500000	0.506
150.000000	0.355
152.500000	0.216
155.000000	0.076
157.500000	-0.056
160.000000	-0.188
162.500000	-0.315
165.000000	-0.393
167.500000	-0.453
170.000000	-0.513
172.500000	-0.570
175.000000	-0.648
177.500000	-0.724
180.000000	-0.809
182.500000	-0.883
185.000000	-0.969
187.500000	-1.045
190.000000	-1.122
192.500000	-1.193
195.000000	-1.272
197.500000	-1.348
200.000000	-1.408
203.000000	-1.457
206.000000	-1.502
209.000000	-1.536
212.000000	-1.578
214.000000	-1.606
218.000000	-1.662
220.000000	-1.690
224.000000	-1.736
227.000000	-1.782
230.000000	-1.813
233.000000	-1.853
236.000000	-1.890
240.000000	-1.931
243.000000	-1.970
247.000000	-2.008
250.000000	-2.010
254.000000	-2.010
258.000000	-2.010
262.000000	-2.010
265.000000	-2.010
269.000000	-2.010
272.000000	-2.010
276.000000	-2.010
280.000000	-2.010
285.000000	-2.010
290.000000	-2.010
295.000000	-2.010
300.000000	-2.010
304.000000	-2.006
307.000000	-1.995
311.000000	-1.982
315.000000	-1.969
320.000000	-1.937
325.000000	-1.916
330.000000	-1.892
335.000000	-1.875
340.000000	-1.852
345.000000	-1.828
350.000000	-1.814
355.000000	-1.788
360.000000	-1.764
365.000000	-1.751
370.000000	-1.727
375.000000	-1.708
382.000000	-1.681
387.000000	-1.662
395.000000	-1.642
400.000000	-1.620
406.000000	-1.599
412.000000	-1.579
418.000000	-1.555
425.000000	-1.528
431.000000	-1.515
437.000000	-1.491
444.000000	-1.469
450.000000	-1.450
455.000000	-1.431
462.000000	-1.409
468.000000	-1.391
475.000000	-1.373
482.000000	-1.352
487.000000	-1.342
494.000000	-1.317
500.000000	-1.300
508.000000	-1.278
515.000000	-1.256
522.000000	-1.233
530.000000	-1.214
538.000000	-1.174
545.000000	-1.145
552.000000	-1.107
560.000000	-1.064
570.000000	-1.009
580.000000	-0.987
590.000000	-0.959
600.000000	-0.934
608.000000	-0.919
615.000000	-0.904
622.000000	-0.885
630.000000	-0.865
640.000000	-0.844
650.000000	-0.821
660.000000	-0.795
670.000000	-0.781
680.000000	-0.756
690.000000	-0.733
700.000000	-0.717
710.000000	-0.696
720.000000	-0.679
730.000000	-0.660
740.000000	-0.632
750.000000	-0.616
762.000000	-0.583
775.000000	-0.534
788.000000	-0.484
800.000000	-0.438
812.000000	-0.405
825.000000	-0.381
838.000000	-0.363
850.000000	-0.334
862.000000	-0.318
875.000000	-0.296
885.000000	-0.282
900.000000	-0.254
912.000000	-0.232
925.000000	-0.214
938.000000	-0.186
950.000000	-0.150
962.000000	-0.112
975.000000	-0.072
988.000000	-0.032
1000.000000	-0.005
1015.000000	0.039
1030.000000	0.084
1044.000000	0.124
1060.000000	0.170
1075.000000	0.202
1090.000000	0.244
1106.000000	0.288
1120.000000	0.326
1138.000000	0.372
1150.000000	0.395
1172.000000	0.453
1180.000000	0.474
1206.000000	0.539
1220.000000	0.565
1241.000000	0.651
1250.000000	0.695
1265.000000	0.767
1280.000000	0.828
1315.000000	0.997
1320.000000	1.023
1340.000000	1.140
1360.000000	1.265
1380.000000	1.398
1400.000000	1.518
1430.000000	1.677
1450.000000	1.779
1475.000000	1.905
1500.000000	2.023
1525.000000	2.165
1550.000000	2.330
1575.000000	2.491
1600.000000	2.649
1625.000000	2.804
1650.000000	2.977
1675.000000	3.150
1700.000000	3.324
1725.000000	3.485
1750.000000	3.658
1775.000000	3.821
1800.000000	3.977
1825.000000	4.137
1850.000000	4.297
1875.000000	4.452
1900.000000	4.626
1925.000000	4.795
1950.000000	4.957
1975.000000	5.127
2000.000000	5.286
2030.000000	5.481
2060.000000	5.664
2090.000000	5.851
2120.000000	6.037
2140.000000	6.159
2180.000000	6.421
2200.000000	6.556
2240.000000	6.811
2270.000000	7.008
2300.000000	7.174
2330.000000	7.317
2360.000000	7.445
2400.000000	7.614
2430.000000	7.738
2470.000000	7.903
2500.000000	8.027
2540.000000	8.185
2580.000000	8.340
2620.000000	8.495
2650.000000	8.587
2690.000000	8.665
2720.000000	8.708
2760.000000	8.769
2800.000000	8.836
2850.000000	8.903
2900.000000	8.953
2950.000000	8.996
3000.000000	9.048
3040.000000	9.079
3070.000000	9.064
3110.000000	9.025
3150.000000	8.986
3200.000000	8.939
3250.000000	8.888
3300.000000	8.801
3350.000000	8.694
3400.000000	8.590
3450.000000	8.488
3500.000000	8.377
3550.000000	8.276
3600.000000	8.178
3650.000000	8.081
3700.000000	7.985
3750.000000	7.891
3820.000000	7.750
3870.000000	7.660
3950.000000	7.507
4000.000000	7.425
4060.000000	7.283
4120.000000	7.136
4180.000000	6.990
4250.000000	6.823
4310.000000	6.682
4370.000000	6.544
4440.000000	6.384
4500.000000	6.249
4550.000000	6.138
4620.000000	5.985
4680.000000	5.877
4750.000000	5.751
4820.000000	5.623
4870.000000	5.538
4940.000000	5.409
5000.000000	5.290
5080.000000	5.131
5150.000000	4.993
5220.000000	4.857
5300.000000	4.710
5380.000000	4.602
5450.000000	4.512
5520.000000	4.413
5600.000000	4.310
5700.000000	4.184
5800.000000	4.034
5900.000000	3.887
6000.000000	3.740
6080.000000	3.622
6150.000000	3.504
6220.000000	3.378
6300.000000	3.226
6400.000000	3.053
6500.000000	2.869
6600.000000	2.732
6700.000000	2.628
6800.000000	2.524
6900.000000	2.419
7000.000000	2.311
7100.000000	2.163
7200.000000	2.000
7300.000000	1.838
7400.000000	1.688
7500.000000	1.532
7620.000000	1.351
7750.000000	1.156
7880.000000	0.966
8000.000000	0.794
8120.000000	0.615
8250.000000	0.411
8380.000000	0.206
8500.000000	0.031
8620.000000	-0.153
8750.000000	-0.348
8850.000000	-0.497
9000.000000	-0.716
9120.000000	-0.879
9250.000000	-1.063
9380.000000	-1.268
9500.000000	-1.447
9620.000000	-1.623
9750.000000	-1.822
9880.000000	-2.008
10000.000000	-2.183
10150.000000	-2.419
10300.000000	-2.649
10440.000000	-2.862
10600.000000	-3.099
10750.000000	-3.354
10900.000000	-3.634
11060.000000	-3.927
11200.000000	-4.179
11380.000000	-4.495
11500.000000	-4.717
11720.000000	-5.122
11800.000000	-5.271
12060.000000	-5.735
12200.000000	-5.987
12410.000000	-6.289
12500.000000	-6.399
12650.000000	-6.590
12800.000000	-6.775
13150.000000	-7.207
13200.000000	-7.279
13400.000000	-7.585
13600.000000	-7.882
13800.000000	-8.176
14000.000000	-8.465
14300.000000	-8.895
14500.000000	-9.198
14750.000000	-9.566
15000.000000	-9.925
15250.000000	-10.331
15500.000000	-10.773
15750.000000	-11.207
16000.000000	-11.634
16250.000000	-12.052
16500.000000	-12.451
16750.000000	-12.833
17000.000000	-13.221
17250.000000	-13.592
17500.000000	-13.953
17750.000000	-14.280
18000.000000	-14.595
18250.000000	-14.914
18500.000000	-15.231
18750.000000	-15.511
19000.000000	-15.761
19250.000000	-16.002
19500.000000	-16.242
19750.000000	-16.482
