* Measurement data measured by REW V5.20.4
* Source: Headset (2- USB-C to 3.5mm Headphone Jack Adapter), MICROPHONE (Master Volume), R, volume: 0.630
* Format: 256k Log Swept Sine, 1 sweep at -6.0 dBFS with no timing reference
* Dated: 10 Sep, 2022 9:51:50 PM
* REW Settings:
*  C-weighting compensation: Off
*  Target level: 75.0 dB
* Note: 
* Measurement: Helios L
* Smoothing: None
* Frequency Step: 1/48 octave
* Start Frequency: 20.300 Hz
*
* Freq(Hz)	SPL(dB)	Phase(degrees)
20.299999	110.943	-173.5776
20.600000	110.986	-173.7729
20.900000	111.026	-174.0128
21.200001	111.072	-174.6151
21.400000	111.096	-175.3186
21.799999	111.102	-177.3763
22.000000	111.071	-178.6094
22.400000	110.933	178.9616
22.700001	110.784	177.5998
23.000000	110.639	176.9418
23.299999	110.548	176.9534
23.600000	110.538	177.3402
24.000000	110.644	177.7746
24.299999	110.759	177.5876
24.700001	110.875	176.4775
25.000000	110.896	175.1689
25.400000	110.838	173.1861
25.799999	110.743	171.3365
26.200001	110.679	169.7816
26.500000	110.666	168.7632
26.900000	110.668	167.5301
27.200001	110.653	166.7283
27.600000	110.581	165.9711
28.000000	110.459	165.7317
28.500000	110.315	166.0057
29.000000	110.262	166.1050
29.500000	110.276	165.3022
30.000000	110.272	163.7487
30.400000	110.236	162.4987
30.700001	110.202	161.7771
31.100000	110.173	161.1196
31.500000	110.170	160.6068
32.000000	110.164	159.8312
32.500000	110.103	158.9212
33.000000	109.996	158.2083
33.500000	109.906	157.7475
34.000000	109.863	157.1378
34.500000	109.811	156.0978
35.000000	109.692	154.8894
35.500000	109.553	153.9429
36.000000	109.497	153.1757
36.500000	109.542	152.0970
37.000000	109.585	150.6397
37.500000	109.525	149.4866
38.200001	109.322	149.6726
38.700001	109.229	150.7045
39.500000	109.196	151.1402
40.000000	109.132	150.2894
40.599998	109.007	148.9620
41.200001	108.930	147.9677
41.799999	108.923	147.3069
42.500000	108.918	146.7522
43.099998	108.854	146.4006
43.700001	108.748	146.0916
44.400002	108.632	145.5988
45.000000	108.563	144.8962
45.500000	108.502	144.1927
46.200001	108.399	143.4513
46.799999	108.336	143.1391
47.500000	108.307	142.6048
48.200001	108.245	141.7904
48.700001	108.172	141.3414
49.400002	108.083	140.9623
50.000000	108.028	140.5908
50.799999	107.965	139.8637
51.500000	107.896	138.9563
52.200001	107.740	138.2664
53.000000	107.550	138.5925
53.799999	107.485	138.3844
54.500000	107.290	136.9671
55.200001	106.996	136.6426
56.000000	107.052	137.5864
57.000000	107.330	136.1525
58.000000	107.136	135.0739
59.000000	107.030	135.1859
60.000000	106.989	134.5757
60.799999	106.926	134.0266
61.500000	106.833	133.3717
62.200001	106.749	132.5955
63.000000	106.668	131.7151
64.000000	106.501	132.7441
65.000000	106.573	134.7055
66.000000	106.526	132.7129
67.000000	106.217	129.8965
68.000000	105.984	130.1263
69.000000	106.065	132.0896
70.000000	105.995	130.6843
71.000000	105.675	130.0860
72.000000	105.752	130.1623
73.000000	105.483	130.7443
74.000000	105.388	132.2205
75.000000	105.340	129.4089
76.199997	105.278	127.9640
77.500000	105.274	126.1234
78.800003	104.973	127.1123
80.000000	104.977	125.9961
81.199997	104.807	125.9114
82.500000	104.778	126.0542
83.800003	104.706	126.1301
85.000000	104.549	125.3712
86.199997	104.732	125.6744
87.500000	104.691	122.4067
88.500000	104.369	123.7951
90.000000	104.391	124.2064
91.199997	104.122	125.3892
92.500000	104.126	125.4232
93.800003	104.066	123.4648
95.000000	103.903	122.6115
96.199997	103.864	123.7142
97.500000	103.752	122.6677
98.800003	103.651	123.7426
100.000000	103.964	122.9169
101.500000	103.490	122.8380
103.000000	103.478	122.4671
104.400002	103.404	122.2334
106.000000	103.237	121.8498
107.500000	103.170	121.7309
109.000000	103.126	121.4366
110.599998	103.070	121.9769
112.000000	103.103	120.9782
113.800003	102.861	120.3958
115.000000	102.716	120.7720
117.199997	102.753	119.6031
118.000000	102.634	119.9834
120.599998	102.481	120.0439
122.000000	102.447	120.0225
124.099998	102.350	119.6973
125.000000	102.291	119.5979
126.500000	102.296	119.3712
128.000000	102.167	119.2105
131.500000	102.049	119.2881
132.000000	102.042	119.2434
134.000000	101.947	119.0764
136.000000	101.842	119.0870
138.000000	101.770	118.4719
140.000000	101.744	118.3293
143.000000	101.592	118.0314
145.000000	101.581	118.0897
147.500000	101.457	117.8007
150.000000	101.471	117.4670
152.500000	101.348	117.5961
155.000000	101.278	117.2622
157.500000	101.264	117.4863
160.000000	101.062	116.9560
162.500000	100.985	117.3387
165.000000	100.993	117.2786
167.500000	100.831	118.5787
170.000000	100.785	114.3500
172.500000	100.890	116.9573
175.000000	100.821	116.5094
177.500000	100.701	116.0711
180.000000	100.686	115.7921
182.500000	100.614	115.7867
185.000000	100.628	115.1097
187.500000	100.539	115.0370
190.000000	100.570	115.2386
192.500000	100.480	114.9869
195.000000	100.523	114.9563
197.500000	100.472	115.0818
200.000000	100.426	114.5658
203.000000	100.402	114.7973
206.000000	100.394	114.2288
209.000000	100.384	114.1425
212.000000	100.389	113.9374
214.000000	100.374	113.7885
218.000000	100.334	113.6017
220.000000	100.354	113.5573
224.000000	100.299	113.1229
227.000000	100.302	113.1047
230.000000	100.298	112.7955
233.000000	100.285	112.5273
236.000000	100.284	112.4345
240.000000	100.258	112.1288
243.000000	100.258	111.7972
247.000000	100.273	111.3161
250.000000	100.280	112.3550
254.000000	100.233	111.3946
258.000000	100.278	110.7969
262.000000	100.295	110.5121
265.000000	100.277	110.2675
269.000000	100.269	109.9862
272.000000	100.297	109.7933
276.000000	100.311	109.5070
280.000000	100.312	109.1485
285.000000	100.331	108.7864
290.000000	100.375	108.0340
295.000000	100.373	107.7203
300.000000	100.426	107.3190
304.000000	100.413	107.3052
307.000000	100.435	106.8876
311.000000	100.461	106.5848
315.000000	100.443	106.0928
320.000000	100.476	106.0199
325.000000	100.493	105.8767
330.000000	100.518	105.1635
335.000000	100.583	105.6130
340.000000	100.639	105.3255
345.000000	100.598	104.5824
350.000000	100.687	104.3202
355.000000	100.795	104.2381
360.000000	100.974	103.8817
365.000000	100.832	103.0908
370.000000	101.125	102.1487
375.000000	101.147	101.3864
382.000000	101.162	100.5169
387.000000	101.183	99.4543
395.000000	101.314	98.7990
400.000000	101.350	98.0533
406.000000	101.344	97.4954
412.000000	101.361	96.6876
418.000000	101.410	96.4620
425.000000	101.586	95.3177
431.000000	101.537	94.2508
437.000000	101.585	93.7597
444.000000	101.654	92.7517
450.000000	101.684	92.4032
455.000000	101.701	91.8105
462.000000	101.713	90.9361
468.000000	101.839	90.1902
475.000000	101.809	89.7977
482.000000	101.874	88.6761
487.000000	101.903	88.0360
494.000000	101.964	87.2310
500.000000	101.962	86.6046
508.000000	101.993	85.9641
515.000000	102.060	85.0482
522.000000	102.100	84.4161
530.000000	102.123	83.4500
538.000000	102.145	82.5841
545.000000	102.187	81.8394
552.000000	102.194	81.3019
560.000000	102.239	80.4922
570.000000	102.259	79.4946
580.000000	102.293	78.3744
590.000000	102.325	77.3991
600.000000	102.390	76.6168
608.000000	102.397	76.3603
615.000000	102.409	75.5214
622.000000	102.356	75.0433
630.000000	102.474	74.3895
640.000000	102.276	74.0454
650.000000	102.399	72.8937
660.000000	102.417	72.1040
670.000000	102.386	71.5111
680.000000	102.443	70.7278
690.000000	102.402	70.3006
700.000000	102.512	69.1089
710.000000	102.377	68.3554
720.000000	102.384	68.0562
730.000000	102.415	67.9312
740.000000	102.366	68.1758
750.000000	102.486	67.0005
762.000000	102.466	66.7664
775.000000	102.415	65.8335
788.000000	102.447	65.8355
800.000000	102.439	65.0392
812.000000	102.445	64.7677
825.000000	102.468	64.5410
838.000000	102.509	63.7932
850.000000	102.519	64.0351
862.000000	102.557	63.5106
875.000000	102.600	63.0669
885.000000	102.619	62.9358
900.000000	102.667	62.2159
912.000000	102.724	62.2507
925.000000	102.779	62.0047
938.000000	102.829	61.7083
950.000000	102.851	61.4266
962.000000	102.914	61.1844
975.000000	102.976	60.8191
988.000000	103.041	60.5246
1000.000000	103.104	60.2874
1015.000000	103.182	59.8847
1030.000000	103.248	59.5254
1044.000000	103.328	59.1657
1060.000000	103.418	58.7068
1075.000000	103.484	58.2523
1090.000000	103.524	57.8982
1106.000000	103.612	57.4826
1120.000000	103.673	57.0464
1138.000000	103.744	56.5113
1150.000000	103.787	56.1887
1172.000000	103.862	55.5020
1180.000000	103.892	55.2852
1206.000000	103.986	54.5533
1220.000000	104.052	54.1127
1241.000000	104.165	53.5201
1250.000000	104.215	53.2422
1265.000000	104.292	52.8216
1280.000000	104.369	52.4367
1315.000000	104.548	51.5259
1320.000000	104.570	51.4196
1340.000000	104.664	50.9088
1360.000000	104.808	50.4485
1380.000000	104.907	49.9697
1400.000000	105.003	49.5394
1430.000000	105.156	48.9341
1450.000000	105.254	48.5206
1475.000000	105.383	48.0614
1500.000000	105.503	47.6071
1525.000000	105.628	47.1631
1550.000000	105.730	46.7538
1575.000000	105.832	46.3260
1600.000000	105.938	45.8780
1625.000000	106.043	45.4655
1650.000000	106.146	45.0579
1675.000000	106.249	44.6315
1700.000000	106.358	44.2300
1725.000000	106.470	43.8035
1750.000000	106.583	43.3837
1775.000000	106.697	42.9258
1800.000000	106.809	42.4893
1825.000000	106.923	42.0345
1850.000000	107.040	41.5632
1875.000000	107.157	41.0644
1900.000000	107.278	40.5306
1925.000000	107.398	39.9814
1950.000000	107.510	39.4235
1975.000000	107.624	38.8586
2000.000000	107.737	38.2133
2030.000000	107.870	37.4390
2060.000000	108.003	36.6345
2090.000000	108.128	35.7689
2120.000000	108.254	34.8798
2140.000000	108.334	34.2438
2180.000000	108.488	32.9384
2200.000000	108.562	32.2457
2240.000000	108.697	30.8235
2270.000000	108.791	29.7020
2300.000000	108.876	28.5467
2330.000000	108.947	27.3509
2360.000000	109.007	26.1599
2400.000000	109.071	24.5157
2430.000000	109.107	23.2535
2470.000000	109.137	21.6123
2500.000000	109.146	20.3703
2540.000000	109.140	18.7260
2580.000000	109.108	17.1624
2620.000000	109.060	15.6406
2650.000000	109.016	14.5330
2690.000000	108.943	13.1622
2720.000000	108.879	12.1809
2760.000000	108.783	10.9671
2800.000000	108.675	9.8711
2850.000000	108.529	8.6604
2900.000000	108.379	7.6035
2950.000000	108.219	6.7747
3000.000000	108.063	6.0851
3040.000000	107.941	5.6677
3070.000000	107.853	5.4017
3110.000000	107.734	5.1738
3150.000000	107.626	4.9996
3200.000000	107.501	4.9259
3250.000000	107.394	4.9126
3300.000000	107.308	4.9893
3350.000000	107.234	5.0895
3400.000000	107.168	5.2358
3450.000000	107.118	5.3602
3500.000000	107.072	5.5381
3550.000000	107.035	5.7502
3600.000000	107.010	6.0364
3650.000000	107.001	6.3836
3700.000000	107.009	6.7111
3750.000000	107.038	7.1063
3820.000000	107.116	7.5419
3870.000000	107.195	7.7836
3950.000000	107.358	7.9077
4000.000000	107.459	7.8176
4060.000000	107.612	7.5024
4120.000000	107.785	6.7920
4180.000000	107.895	5.9781
4250.000000	108.019	4.4973
4310.000000	108.099	3.0057
4370.000000	108.125	1.2614
4440.000000	108.077	-1.0852
4500.000000	107.913	-3.0301
4550.000000	107.695	-4.6099
4620.000000	107.280	-6.2992
4680.000000	106.837	-7.0944
4750.000000	106.230	-6.7635
4820.000000	105.600	-4.9475
4870.000000	105.188	-2.5664
4940.000000	104.777	2.0223
5000.000000	104.632	6.7985
5080.000000	104.793	13.3243
5150.000000	105.274	18.0646
5220.000000	105.920	21.2551
5300.000000	106.734	22.7351
5380.000000	107.469	22.2158
5450.000000	107.961	20.5353
5520.000000	108.267	18.3158
5600.000000	108.420	15.5747
5700.000000	108.380	12.5855
5800.000000	108.154	10.4770
5900.000000	107.837	9.3315
6000.000000	107.498	9.1124
6080.000000	107.238	9.5006
6150.000000	107.030	10.1620
6220.000000	106.843	11.0692
6300.000000	106.666	12.3417
6400.000000	106.502	14.1592
6500.000000	106.405	16.0764
6600.000000	106.369	18.0059
6700.000000	106.399	19.7639
6800.000000	106.489	21.2211
6900.000000	106.649	22.0609
7000.000000	106.806	22.0663
7100.000000	106.549	22.4375
7200.000000	107.354	26.6819
7300.000000	107.643	23.0112
7400.000000	107.529	21.2407
7500.000000	107.341	21.4652
7620.000000	107.387	23.8898
7750.000000	108.118	26.2828
7880.000000	109.062	25.1189
8000.000000	109.917	19.8868
8120.000000	110.389	11.4977
8250.000000	110.279	1.1152
8380.000000	109.605	-8.1038
8500.000000	108.719	-14.4379
8620.000000	107.775	-18.8972
8750.000000	106.739	-22.3488
8850.000000	105.936	-24.4110
9000.000000	104.673	-26.6215
9120.000000	103.582	-26.9896
9250.000000	102.423	-25.3519
9380.000000	101.450	-22.4159
9500.000000	100.669	-18.6605
9620.000000	100.096	-14.2371
9750.000000	99.649	-9.6005
9880.000000	99.327	-5.0439
10000.000000	99.112	-1.0365
10150.000000	98.896	3.5086
10300.000000	98.722	8.0574
10440.000000	98.598	12.1572
10600.000000	98.504	16.5411
10750.000000	98.427	20.3981
10900.000000	98.362	23.9728
11060.000000	98.291	27.4161
11200.000000	98.220	30.2311
11380.000000	98.092	33.5128
11500.000000	97.988	35.5954
11720.000000	97.783	39.0521
11800.000000	97.699	40.1266
12060.000000	97.383	43.0085
12200.000000	97.185	44.2104
12410.000000	96.926	45.4289
12500.000000	96.813	45.7496
12650.000000	96.628	45.9774
12800.000000	96.436	45.7733
13150.000000	96.091	43.0785
13200.000000	96.053	42.4296
13400.000000	95.966	39.1068
13600.000000	96.015	34.7532
13800.000000	96.284	29.3345
14000.000000	96.779	23.1183
14300.000000	97.973	12.7594
14500.000000	99.090	5.1697
14750.000000	100.772	-5.9107
15000.000000	102.585	-19.7651
15250.000000	104.153	-37.3275
15500.000000	104.951	-57.4182
15750.000000	104.846	-75.8605
16000.000000	104.580	-91.5797
16250.000000	104.040	-109.0790
16500.000000	102.843	-124.8209
16750.000000	101.595	-138.0812
17000.000000	100.436	-151.2333
17250.000000	99.379	-165.9851
17500.000000	98.224	176.3204
17750.000000	97.069	154.9005
18000.000000	95.977	127.8449
18250.000000	95.063	93.8766
18500.000000	94.698	53.7137
18750.000000	95.174	9.8915
19000.000000	96.256	-35.5097
19250.000000	97.274	-82.5692
19500.000000	97.604	-131.5859
19750.000000	96.795	178.4033
