* Measurement data measured by REW V5.20.4
* Source: Headset (2- USB-C to 3.5mm Headphone Jack Adapter), MICROPHONE (Master Volume), R, volume: 0.260
* Format: 256k Log Swept Sine, 1 sweep at -6.0 dBFS with no timing reference
* Dated: 21 Nov, 2022 9:05:46 PM
* REW Settings:
*  C-weighting compensation: Off
*  Target level: 75.0 dB
* Note: 
* Measurement: TE HEXA R
* Smoothing: None
* Frequency Step: 1/48 octave
* Start Frequency: 20.300 Hz
*
* Freq(Hz)	SPL(dB)	Phase(degrees)
20.299999	93.068	37.0399
20.600000	93.099	36.1690
20.900000	93.119	35.3985
21.200001	93.135	34.6498
21.400000	93.146	34.1601
21.799999	93.171	33.1955
22.000000	93.185	32.7148
22.400000	93.216	31.7428
22.700001	93.240	30.9973
23.000000	93.262	30.2418
23.299999	93.279	29.4972
23.600000	93.294	28.7890
24.000000	93.311	27.9361
24.299999	93.328	27.3706
24.700001	93.357	26.6800
25.000000	93.382	26.1630
25.400000	93.411	25.4202
25.799999	93.422	24.6038
26.200001	93.410	23.7626
26.500000	93.390	23.1575
26.900000	93.361	22.4114
27.200001	93.347	21.8836
27.600000	93.349	21.1739
28.000000	93.370	20.4099
28.500000	93.400	19.4033
29.000000	93.408	18.4905
29.500000	93.391	17.8003
30.000000	93.368	17.2953
30.400000	93.354	16.9078
30.700001	93.346	16.5730
31.100000	93.333	16.0479
31.500000	93.319	15.4617
32.000000	93.302	14.7210
32.500000	93.293	14.0256
33.000000	93.289	13.3724
33.500000	93.278	12.7451
34.000000	93.258	12.1498
34.500000	93.238	11.5936
35.000000	93.219	11.0626
35.500000	93.205	10.5408
36.000000	93.196	10.0322
36.500000	93.191	9.5380
37.000000	93.185	9.0300
37.500000	93.171	8.4821
38.200001	93.128	7.7117
38.700001	93.086	7.2485
39.500000	93.043	6.6532
40.000000	93.031	6.2693
40.599998	93.012	5.7654
41.200001	92.980	5.2830
41.799999	92.945	4.8439
42.500000	92.907	4.3354
43.099998	92.878	3.9006
43.700001	92.852	3.4849
44.400002	92.824	2.9940
45.000000	92.794	2.5654
45.500000	92.763	2.2405
46.200001	92.721	1.8491
46.799999	92.696	1.5138
47.500000	92.669	1.0696
48.200001	92.633	0.6384
48.700001	92.603	0.3962
49.400002	92.568	0.1369
50.000000	92.547	-0.1136
50.799999	92.513	-0.5769
51.500000	92.471	-0.9910
52.200001	92.431	-1.3251
53.000000	92.393	-1.6669
53.799999	92.350	-1.9705
54.500000	92.318	-2.2182
55.200001	92.290	-2.5248
56.000000	92.249	-2.8652
57.000000	92.199	-3.1340
58.000000	92.154	-3.4581
59.000000	92.105	-3.8319
60.000000	92.060	-4.2121
60.799999	92.019	-4.4183
61.500000	91.985	-4.5223
62.200001	91.953	-4.6989
63.000000	91.906	-4.9574
64.000000	91.866	-5.1611
65.000000	91.847	-5.4008
66.000000	91.789	-5.5785
67.000000	91.732	-5.7529
68.000000	91.684	-6.1873
69.000000	91.624	-6.3088
70.000000	91.613	-5.9647
71.000000	91.613	-6.2737
72.000000	91.520	-6.8437
73.000000	91.491	-6.9089
74.000000	91.483	-7.2027
75.000000	91.386	-7.2323
76.199997	91.363	-7.3105
77.500000	91.323	-7.6609
78.800003	91.277	-7.5362
80.000000	91.211	-7.7255
81.199997	91.197	-7.7700
82.500000	91.156	-7.9170
83.800003	91.081	-7.8742
85.000000	91.068	-7.9998
86.199997	91.044	-8.1699
87.500000	91.013	-8.2128
88.500000	90.992	-8.3334
90.000000	90.943	-8.4719
91.199997	90.902	-8.5038
92.500000	90.880	-8.6023
93.800003	90.837	-8.7309
95.000000	90.801	-8.7876
96.199997	90.770	-8.8436
97.500000	90.740	-8.8952
98.800003	90.693	-8.9732
100.000000	90.665	-9.0424
101.500000	90.636	-9.1009
103.000000	90.599	-9.1284
104.400002	90.548	-9.0743
106.000000	90.521	-9.1649
107.500000	90.474	-9.1308
109.000000	90.440	-9.1447
110.599998	90.409	-9.2156
112.000000	90.375	-9.2185
113.800003	90.338	-9.1845
115.000000	90.310	-9.1963
117.199997	90.260	-9.1914
118.000000	90.248	-9.1748
120.599998	90.190	-9.1711
122.000000	90.166	-9.1703
124.099998	90.127	-9.0998
125.000000	90.110	-9.0857
126.500000	90.087	-9.1079
128.000000	90.057	-9.0648
131.500000	89.995	-8.9789
132.000000	89.988	-8.9653
134.000000	89.956	-8.9048
136.000000	89.927	-8.8641
138.000000	89.895	-8.7980
140.000000	89.862	-8.7571
143.000000	89.818	-8.6682
145.000000	89.788	-8.6250
147.500000	89.756	-8.5192
150.000000	89.724	-8.3932
152.500000	89.686	-8.3357
155.000000	89.648	-8.2349
157.500000	89.613	-8.1506
160.000000	89.581	-8.0476
162.500000	89.545	-7.9710
165.000000	89.516	-7.8820
167.500000	89.481	-7.8004
170.000000	89.451	-7.6921
172.500000	89.432	-7.6268
175.000000	89.407	-7.5316
177.500000	89.382	-7.4269
180.000000	89.359	-7.3370
182.500000	89.335	-7.2384
185.000000	89.308	-7.1432
187.500000	89.288	-7.0824
190.000000	89.268	-6.9701
192.500000	89.250	-6.8220
195.000000	89.228	-6.7679
197.500000	89.213	-6.6717
200.000000	89.198	-6.5520
203.000000	89.176	-6.4178
206.000000	89.157	-6.2931
209.000000	89.140	-6.1746
212.000000	89.125	-6.0475
214.000000	89.112	-5.9595
218.000000	89.083	-5.7965
220.000000	89.068	-5.7027
224.000000	89.038	-5.5383
227.000000	89.023	-5.4392
230.000000	89.002	-5.2761
233.000000	88.986	-5.1676
236.000000	88.965	-5.0271
240.000000	88.939	-4.8692
243.000000	88.928	-4.7451
247.000000	88.903	-4.5718
250.000000	88.892	-4.5105
254.000000	88.867	-4.2924
258.000000	88.850	-4.1152
262.000000	88.828	-3.9416
265.000000	88.815	-3.8172
269.000000	88.795	-3.6297
272.000000	88.776	-3.5099
276.000000	88.756	-3.3028
280.000000	88.736	-3.1089
285.000000	88.705	-2.8653
290.000000	88.680	-2.6038
295.000000	88.653	-2.2991
300.000000	88.633	-2.0436
304.000000	88.612	-1.7965
307.000000	88.600	-1.6185
311.000000	88.585	-1.3805
315.000000	88.568	-1.1162
320.000000	88.554	-0.7692
325.000000	88.548	-0.3383
330.000000	88.553	0.0587
335.000000	88.573	0.4160
340.000000	88.599	0.6005
345.000000	88.628	0.6658
350.000000	88.642	0.7211
355.000000	88.647	0.7671
360.000000	88.636	0.7502
365.000000	88.624	0.8236
370.000000	88.607	0.9237
375.000000	88.591	1.0436
382.000000	88.569	1.2011
387.000000	88.547	1.3625
395.000000	88.518	1.6151
400.000000	88.500	1.8051
406.000000	88.483	2.0114
412.000000	88.465	2.2408
418.000000	88.448	2.4623
425.000000	88.427	2.7518
431.000000	88.410	2.9548
437.000000	88.392	3.2080
444.000000	88.373	3.4666
450.000000	88.355	3.7303
455.000000	88.340	3.9351
462.000000	88.320	4.2051
468.000000	88.306	4.4627
475.000000	88.287	4.7593
482.000000	88.276	5.0374
487.000000	88.260	5.2459
494.000000	88.249	5.5396
500.000000	88.242	5.8067
508.000000	88.225	6.1480
515.000000	88.217	6.4559
522.000000	88.205	6.7609
530.000000	88.193	7.1194
538.000000	88.181	7.4838
545.000000	88.171	7.7912
552.000000	88.162	8.1224
560.000000	88.154	8.4941
570.000000	88.137	8.9588
580.000000	88.131	9.4306
590.000000	88.122	9.9065
600.000000	88.112	10.3934
608.000000	88.107	10.8071
615.000000	88.094	11.1589
622.000000	88.087	11.4771
630.000000	88.078	11.8944
640.000000	88.075	12.4024
650.000000	88.069	12.9153
660.000000	88.059	13.4265
670.000000	88.063	13.9582
680.000000	88.068	14.4860
690.000000	88.062	14.9936
700.000000	88.061	15.5065
710.000000	88.062	16.0472
720.000000	88.062	16.5801
730.000000	88.063	17.1127
740.000000	88.070	17.6753
750.000000	88.074	18.2467
762.000000	88.090	18.9226
775.000000	88.110	19.6534
788.000000	88.127	20.3729
800.000000	88.157	21.0488
812.000000	88.181	21.6979
825.000000	88.217	22.4180
838.000000	88.254	23.1118
850.000000	88.292	23.6906
862.000000	88.337	24.3406
875.000000	88.388	24.9813
885.000000	88.428	25.4745
900.000000	88.490	26.1573
912.000000	88.549	26.7036
925.000000	88.614	27.2456
938.000000	88.680	27.7922
950.000000	88.741	28.2552
962.000000	88.810	28.6699
975.000000	88.890	29.1138
988.000000	88.969	29.5405
1000.000000	89.040	29.8823
1015.000000	89.134	30.2973
1030.000000	89.224	30.6294
1044.000000	89.310	30.9474
1060.000000	89.404	31.2393
1075.000000	89.494	31.5017
1090.000000	89.568	31.7335
1106.000000	89.639	31.9360
1120.000000	89.698	32.0813
1138.000000	89.774	32.2652
1150.000000	89.820	32.3887
1172.000000	89.903	32.5384
1180.000000	89.930	32.5764
1206.000000	90.015	32.7539
1220.000000	90.074	32.8322
1241.000000	90.183	32.9241
1250.000000	90.227	32.9874
1265.000000	90.298	33.0504
1280.000000	90.366	33.1346
1315.000000	90.514	33.3289
1320.000000	90.533	33.3633
1340.000000	90.614	33.4874
1360.000000	90.734	33.6450
1380.000000	90.817	33.7805
1400.000000	90.897	33.9317
1430.000000	91.012	34.1764
1450.000000	91.091	34.3838
1475.000000	91.183	34.6340
1500.000000	91.275	34.8746
1525.000000	91.367	35.1650
1550.000000	91.432	35.4666
1575.000000	91.500	35.7502
1600.000000	91.567	36.0903
1625.000000	91.635	36.3985
1650.000000	91.706	36.7293
1675.000000	91.777	37.0642
1700.000000	91.852	37.3938
1725.000000	91.929	37.7238
1750.000000	92.011	38.0650
1775.000000	92.091	38.3900
1800.000000	92.177	38.7232
1825.000000	92.264	39.0261
1850.000000	92.354	39.3411
1875.000000	92.444	39.6372
1900.000000	92.540	39.9033
1925.000000	92.637	40.2202
1950.000000	92.733	40.5000
1975.000000	92.830	40.7384
2000.000000	92.932	40.9726
2030.000000	93.058	41.2516
2060.000000	93.186	41.4878
2090.000000	93.317	41.6986
2120.000000	93.450	41.8809
2140.000000	93.543	41.9783
2180.000000	93.729	42.1197
2200.000000	93.823	42.1737
2240.000000	94.015	42.2109
2270.000000	94.162	42.1849
2300.000000	94.307	42.1265
2330.000000	94.456	41.9946
2360.000000	94.606	41.8345
2400.000000	94.807	41.4992
2430.000000	94.959	41.2209
2470.000000	95.157	40.7259
2500.000000	95.306	40.2688
2540.000000	95.501	39.5535
2580.000000	95.688	38.7314
2620.000000	95.866	37.8008
2650.000000	95.993	37.0125
2690.000000	96.148	35.8547
2720.000000	96.253	34.9298
2760.000000	96.375	33.6002
2800.000000	96.480	32.2033
2850.000000	96.576	30.3734
2900.000000	96.637	28.5067
2950.000000	96.665	26.6394
3000.000000	96.664	24.7974
3040.000000	96.638	23.3488
3070.000000	96.609	22.2782
3110.000000	96.553	20.9054
3150.000000	96.483	19.5496
3200.000000	96.373	17.9407
3250.000000	96.241	16.3976
3300.000000	96.090	14.9698
3350.000000	95.919	13.6433
3400.000000	95.728	12.4562
3450.000000	95.527	11.3976
3500.000000	95.314	10.4833
3550.000000	95.095	9.7502
3600.000000	94.869	9.1436
3650.000000	94.640	8.7023
3700.000000	94.411	8.3832
3750.000000	94.183	8.2101
3820.000000	93.873	8.2132
3870.000000	93.657	8.3474
3950.000000	93.331	8.7906
4000.000000	93.136	9.1860
4060.000000	92.922	9.8111
4120.000000	92.723	10.5517
4180.000000	92.549	11.3948
4250.000000	92.389	12.4067
4310.000000	92.278	13.2625
4370.000000	92.185	14.0303
4440.000000	92.094	14.8318
4500.000000	92.026	15.4277
4550.000000	91.968	15.8994
4620.000000	91.889	16.4729
4680.000000	91.815	16.9338
4750.000000	91.725	17.4497
4820.000000	91.629	17.9341
4870.000000	91.550	18.3175
4940.000000	91.443	18.9027
5000.000000	91.347	19.4889
5080.000000	91.223	20.1913
5150.000000	91.115	20.9440
5220.000000	91.006	21.7695
5300.000000	90.897	22.7881
5380.000000	90.809	23.8339
5450.000000	90.738	24.8013
5520.000000	90.676	25.7849
5600.000000	90.609	26.9060
5700.000000	90.543	28.2588
5800.000000	90.500	29.5884
5900.000000	90.468	30.9308
6000.000000	90.460	32.2730
6080.000000	90.458	33.3533
6150.000000	90.476	34.2819
6220.000000	90.505	35.2216
6300.000000	90.554	36.3231
6400.000000	90.635	37.6395
6500.000000	90.750	38.9007
6600.000000	90.890	40.1784
6700.000000	91.072	41.3685
6800.000000	91.292	42.4017
6900.000000	91.592	43.3517
7000.000000	91.987	44.0779
7100.000000	92.422	44.6193
7200.000000	92.914	44.8236
7300.000000	93.469	44.5284
7400.000000	94.070	43.7045
7500.000000	94.723	42.1654
7620.000000	95.558	39.1351
7750.000000	96.558	33.9895
7880.000000	97.293	26.5780
8000.000000	97.739	17.1263
8120.000000	97.733	6.2193
8250.000000	97.143	-5.4321
8380.000000	96.087	-15.1736
8500.000000	94.887	-21.8502
8620.000000	93.624	-26.3611
8750.000000	92.263	-29.3517
8850.000000	91.290	-30.6384
9000.000000	89.925	-31.2935
9120.000000	88.948	-31.1405
9250.000000	87.993	-30.3625
9380.000000	87.136	-29.4091
9500.000000	86.435	-28.1942
9620.000000	85.818	-26.8420
9750.000000	85.202	-25.3787
9880.000000	84.708	-23.6335
10000.000000	84.287	-22.2537
10150.000000	83.851	-20.5845
10300.000000	83.512	-19.1748
10440.000000	83.269	-18.1384
10600.000000	83.061	-16.9932
10750.000000	82.944	-16.4856
10900.000000	82.837	-16.3706
11060.000000	82.774	-16.3691
11200.000000	82.733	-17.0687
11380.000000	82.708	-18.6407
11500.000000	82.698	-20.0015
11720.000000	82.536	-22.9031
11800.000000	82.478	-23.9719
12060.000000	82.198	-27.2698
12200.000000	82.061	-28.8092
12410.000000	81.931	-31.1836
12500.000000	81.883	-32.2478
12650.000000	81.877	-33.8180
12800.000000	81.930	-35.5880
13150.000000	82.230	-41.0322
13200.000000	82.313	-42.0312
13400.000000	82.637	-46.4226
13600.000000	83.001	-51.9669
13800.000000	83.469	-58.9621
14000.000000	83.935	-67.3037
14300.000000	84.624	-81.3116
14500.000000	85.224	-93.2485
14750.000000	85.748	-112.0513
15000.000000	85.773	-134.0551
15250.000000	85.121	-157.0349
15500.000000	83.896	-179.0624
15750.000000	82.322	161.2596
16000.000000	80.547	144.3765
16250.000000	78.690	130.8239
16500.000000	77.301	126.2203
16750.000000	78.940	117.5576
17000.000000	79.122	89.6832
17250.000000	78.151	68.4751
17500.000000	77.357	49.9631
17750.000000	76.835	31.4131
18000.000000	76.674	11.5342
18250.000000	77.002	-10.7992
18500.000000	77.471	-39.2308
18750.000000	77.842	-74.5864
19000.000000	77.812	-115.4832
19250.000000	77.236	-162.9484
19500.000000	75.659	142.8947
19750.000000	72.967	84.9555
