* Measurement data measured by REW V5.20.4
* Source: Headset (2- USB-C to 3.5mm Headphone Jack Adapter), MICROPHONE (Master Volume), R, volume: 0.260
* Format: 256k Log Swept Sine, 1 sweep at -6.0 dBFS with no timing reference
* Dated: 12 Dec, 2022 10:07:33 PM
* REW Settings:
*  C-weighting compensation: Off
*  Target level: 75.0 dB
* Note: 
* Measurement: TE HEXA S2 R
* Smoothing: None
* Frequency Step: 1/48 octave
* Start Frequency: 20.300 Hz
*
* Freq(Hz)	SPL(dB)	Phase(degrees)
20.299999	93.916	32.1875
20.600000	93.949	31.3207
20.900000	93.972	30.4818
21.200001	93.986	29.6256
21.400000	93.991	29.0669
21.799999	93.996	28.0124
22.000000	93.998	27.5264
22.400000	94.008	26.6288
22.700001	94.024	25.9825
23.000000	94.046	25.3141
23.299999	94.068	24.6001
23.600000	94.084	23.8446
24.000000	94.092	22.8143
24.299999	94.087	22.0753
24.700001	94.072	21.1894
25.000000	94.063	20.6060
25.400000	94.063	19.8947
25.799999	94.078	19.1689
26.200001	94.100	18.3496
26.500000	94.111	17.6678
26.900000	94.110	16.7178
27.200001	94.094	16.0365
27.600000	94.063	15.2471
28.000000	94.036	14.6233
28.500000	94.025	13.9739
29.000000	94.033	13.2479
29.500000	94.024	12.3485
30.000000	93.974	11.4276
30.400000	93.917	10.8270
30.700001	93.880	10.4764
31.100000	93.854	10.0541
31.500000	93.856	9.5507
32.000000	93.867	8.7137
32.500000	93.852	7.8256
33.000000	93.813	7.1919
33.500000	93.783	6.8400
34.000000	93.775	6.4781
34.500000	93.757	5.9060
35.000000	93.695	5.2898
35.500000	93.618	4.9008
36.000000	93.589	4.6520
36.500000	93.616	4.1541
37.000000	93.634	3.2502
37.500000	93.590	2.2833
38.200001	93.472	1.5997
38.700001	93.433	1.4600
39.500000	93.435	0.6818
40.000000	93.392	-0.0870
40.599998	93.294	-0.7006
41.200001	93.230	-0.8716
41.799999	93.218	-1.0697
42.500000	93.198	-1.6362
43.099998	93.145	-2.1661
43.700001	93.086	-2.5801
44.400002	93.034	-2.9698
45.000000	93.002	-3.2623
45.500000	92.979	-3.4950
46.200001	92.940	-3.8489
46.799999	92.896	-4.1584
47.500000	92.844	-4.4822
48.200001	92.802	-4.8386
48.700001	92.771	-5.1289
49.400002	92.717	-5.4950
50.000000	92.675	-5.7480
50.799999	92.635	-6.1344
51.500000	92.597	-6.5311
52.200001	92.553	-6.8509
53.000000	92.506	-7.1176
53.799999	92.456	-7.4192
54.500000	92.404	-7.7141
55.200001	92.352	-7.9791
56.000000	92.303	-8.2437
57.000000	92.246	-8.5709
58.000000	92.179	-8.8933
59.000000	92.116	-9.1669
60.000000	92.055	-9.4295
60.799999	91.999	-9.5831
61.500000	91.954	-9.6634
62.200001	91.920	-9.7972
63.000000	91.877	-10.0309
64.000000	91.813	-10.2867
65.000000	91.744	-10.4721
66.000000	91.705	-10.5934
67.000000	91.686	-10.9067
68.000000	91.614	-11.1132
69.000000	91.548	-11.0335
70.000000	91.511	-11.1495
71.000000	91.465	-11.3812
72.000000	91.401	-11.4415
73.000000	91.360	-11.4513
74.000000	91.319	-11.6874
75.000000	91.260	-11.6631
76.199997	91.238	-11.6026
77.500000	91.174	-11.9287
78.800003	91.127	-12.0512
80.000000	91.076	-12.1665
81.199997	91.028	-12.2239
82.500000	90.973	-12.3496
83.800003	90.933	-12.3856
85.000000	90.871	-12.4186
86.199997	90.834	-12.3995
87.500000	90.781	-12.4976
88.500000	90.755	-12.4738
90.000000	90.710	-12.5584
91.199997	90.665	-12.5574
92.500000	90.617	-12.5694
93.800003	90.576	-12.6017
95.000000	90.535	-12.6197
96.199997	90.502	-12.6281
97.500000	90.454	-12.6334
98.800003	90.425	-12.6570
100.000000	90.382	-12.7608
101.500000	90.334	-12.6224
103.000000	90.304	-12.5757
104.400002	90.251	-12.3559
106.000000	90.215	-12.5320
107.500000	90.183	-12.5029
109.000000	90.128	-12.4331
110.599998	90.092	-12.4033
112.000000	90.061	-12.3685
113.800003	90.015	-12.0857
115.000000	89.992	-12.2074
117.199997	89.923	-12.1679
118.000000	89.900	-12.0791
120.599998	89.890	-12.0055
122.000000	89.832	-11.9001
124.099998	89.824	-11.7304
125.000000	89.812	-11.7048
126.500000	89.771	-11.7721
128.000000	89.753	-11.7569
131.500000	89.682	-11.6426
132.000000	89.681	-11.6175
134.000000	89.647	-11.5145
136.000000	89.608	-11.4405
138.000000	89.571	-11.3692
140.000000	89.541	-11.3146
143.000000	89.490	-11.1556
145.000000	89.470	-11.0101
147.500000	89.426	-10.8989
150.000000	89.400	-10.9052
152.500000	89.351	-10.7101
155.000000	89.302	-10.5518
157.500000	89.281	-10.4057
160.000000	89.211	-10.2364
162.500000	89.191	-10.2019
165.000000	89.158	-10.0212
167.500000	89.123	-9.9587
170.000000	89.087	-9.7814
172.500000	89.062	-9.7114
175.000000	89.024	-9.4945
177.500000	89.016	-9.3579
180.000000	88.982	-9.2496
182.500000	88.955	-8.9608
185.000000	88.924	-8.9092
187.500000	88.916	-8.6391
190.000000	88.908	-8.6120
192.500000	88.891	-8.4389
195.000000	88.896	-8.3546
197.500000	88.867	-8.2702
200.000000	88.873	-8.1894
203.000000	88.856	-8.1324
206.000000	88.836	-7.8819
209.000000	88.808	-7.8018
212.000000	88.791	-7.6214
214.000000	88.779	-7.5616
218.000000	88.751	-7.4305
220.000000	88.730	-7.3337
224.000000	88.710	-7.1312
227.000000	88.686	-6.9854
230.000000	88.666	-6.8979
233.000000	88.645	-6.7709
236.000000	88.626	-6.5998
240.000000	88.600	-6.4182
243.000000	88.584	-6.2988
247.000000	88.565	-6.1154
250.000000	88.542	-6.0347
254.000000	88.530	-5.7687
258.000000	88.512	-5.5862
262.000000	88.494	-5.3936
265.000000	88.482	-5.2684
269.000000	88.463	-5.1010
272.000000	88.450	-4.9651
276.000000	88.430	-4.7729
280.000000	88.412	-4.5848
285.000000	88.390	-4.3849
290.000000	88.364	-4.1586
295.000000	88.342	-3.9344
300.000000	88.322	-3.7060
304.000000	88.301	-3.5274
307.000000	88.290	-3.4057
311.000000	88.271	-3.2013
315.000000	88.257	-3.0217
320.000000	88.235	-2.8093
325.000000	88.214	-2.5708
330.000000	88.196	-2.3550
335.000000	88.172	-2.1207
340.000000	88.157	-1.8967
345.000000	88.137	-1.6589
350.000000	88.120	-1.4742
355.000000	88.117	-1.2360
360.000000	88.098	-1.0111
365.000000	88.088	-0.8047
370.000000	88.075	-0.5941
375.000000	88.066	-0.3742
382.000000	88.041	-0.0832
387.000000	88.029	0.1120
395.000000	88.006	0.4529
400.000000	87.993	0.6757
406.000000	87.977	0.9193
412.000000	87.957	1.1852
418.000000	87.940	1.4393
425.000000	87.919	1.7428
431.000000	87.904	1.9866
437.000000	87.889	2.2608
444.000000	87.867	2.5605
450.000000	87.849	2.8301
455.000000	87.836	3.0576
462.000000	87.817	3.3771
468.000000	87.801	3.6757
475.000000	87.782	3.9770
482.000000	87.765	4.3019
487.000000	87.757	4.5549
494.000000	87.749	4.8917
500.000000	87.738	5.1839
508.000000	87.730	5.5741
515.000000	87.720	5.8960
522.000000	87.714	6.2076
530.000000	87.704	6.5532
538.000000	87.697	6.9064
545.000000	87.684	7.2055
552.000000	87.673	7.5433
560.000000	87.662	7.9093
570.000000	87.648	8.3675
580.000000	87.635	8.8821
590.000000	87.620	9.3647
600.000000	87.607	9.8636
608.000000	87.599	10.2806
615.000000	87.591	10.6323
622.000000	87.585	10.9862
630.000000	87.573	11.4231
640.000000	87.561	11.9795
650.000000	87.557	12.5130
660.000000	87.548	13.0117
670.000000	87.546	13.5939
680.000000	87.543	14.1700
690.000000	87.543	14.7398
700.000000	87.539	15.2880
710.000000	87.540	15.8596
720.000000	87.542	16.4327
730.000000	87.541	16.9782
740.000000	87.554	17.5926
750.000000	87.562	18.1597
762.000000	87.578	18.8711
775.000000	87.592	19.6049
788.000000	87.611	20.3766
800.000000	87.633	21.0258
812.000000	87.659	21.7412
825.000000	87.697	22.4650
838.000000	87.736	23.2346
850.000000	87.780	23.8636
862.000000	87.824	24.5002
875.000000	87.873	25.1816
885.000000	87.916	25.6978
900.000000	87.983	26.4264
912.000000	88.041	26.9939
925.000000	88.107	27.5631
938.000000	88.177	28.1008
950.000000	88.246	28.5685
962.000000	88.312	29.0411
975.000000	88.396	29.4926
988.000000	88.482	29.9152
1000.000000	88.556	30.3036
1015.000000	88.653	30.6927
1030.000000	88.749	31.0476
1044.000000	88.838	31.3780
1060.000000	88.933	31.6839
1075.000000	89.023	31.9013
1090.000000	89.102	32.1465
1106.000000	89.174	32.3431
1120.000000	89.237	32.4871
1138.000000	89.314	32.6814
1150.000000	89.362	32.7302
1172.000000	89.443	32.9234
1180.000000	89.466	32.9572
1206.000000	89.550	33.1004
1220.000000	89.612	33.1453
1241.000000	89.718	33.2818
1250.000000	89.762	33.3092
1265.000000	89.829	33.4118
1280.000000	89.897	33.4741
1315.000000	90.041	33.6927
1320.000000	90.058	33.7287
1340.000000	90.134	33.8522
1360.000000	90.254	34.0018
1380.000000	90.333	34.1596
1400.000000	90.407	34.3286
1430.000000	90.516	34.6164
1450.000000	90.591	34.8287
1475.000000	90.681	35.1187
1500.000000	90.773	35.3878
1525.000000	90.856	35.7408
1550.000000	90.919	36.0331
1575.000000	90.983	36.3737
1600.000000	91.047	36.7251
1625.000000	91.112	37.0681
1650.000000	91.179	37.4393
1675.000000	91.243	37.8036
1700.000000	91.312	38.1849
1725.000000	91.387	38.5699
1750.000000	91.463	38.9676
1775.000000	91.540	39.3420
1800.000000	91.623	39.7078
1825.000000	91.708	40.1170
1850.000000	91.793	40.4599
1875.000000	91.880	40.8499
1900.000000	91.973	41.2134
1925.000000	92.065	41.5374
1950.000000	92.157	41.8775
1975.000000	92.253	42.2134
2000.000000	92.349	42.5243
2030.000000	92.471	42.8719
2060.000000	92.595	43.2137
2090.000000	92.725	43.5445
2120.000000	92.854	43.8209
2140.000000	92.943	43.9884
2180.000000	93.124	44.2885
2200.000000	93.216	44.4402
2240.000000	93.406	44.6372
2270.000000	93.550	44.7701
2300.000000	93.695	44.8526
2330.000000	93.843	44.8920
2360.000000	93.992	44.8780
2400.000000	94.198	44.7860
2430.000000	94.350	44.6636
2470.000000	94.558	44.4282
2500.000000	94.715	44.1737
2540.000000	94.922	43.7589
2580.000000	95.126	43.2097
2620.000000	95.326	42.5481
2650.000000	95.471	41.9744
2690.000000	95.659	41.0957
2720.000000	95.790	40.3476
2760.000000	95.955	39.2574
2800.000000	96.101	38.0287
2850.000000	96.251	36.3586
2900.000000	96.354	34.6004
2950.000000	96.412	32.8660
3000.000000	96.430	31.2435
3040.000000	96.426	30.0707
3070.000000	96.417	29.2712
3110.000000	96.407	28.3041
3150.000000	96.408	27.3360
3200.000000	96.410	26.0729
3250.000000	96.404	24.6799
3300.000000	96.375	23.1866
3350.000000	96.316	21.6462
3400.000000	96.227	20.1442
3450.000000	96.113	18.7295
3500.000000	95.974	17.3995
3550.000000	95.821	16.1788
3600.000000	95.648	15.0934
3650.000000	95.464	14.1418
3700.000000	95.270	13.3042
3750.000000	95.065	12.6162
3820.000000	94.769	11.8825
3870.000000	94.550	11.5421
3950.000000	94.198	11.3446
4000.000000	93.987	11.4627
4060.000000	93.752	11.7818
4120.000000	93.540	12.2581
4180.000000	93.358	12.8028
4250.000000	93.172	13.4870
4310.000000	93.028	14.1113
4370.000000	92.910	14.7371
4440.000000	92.787	15.4090
4500.000000	92.692	15.9869
4550.000000	92.624	16.4325
4620.000000	92.535	17.0215
4680.000000	92.460	17.4748
4750.000000	92.381	17.9688
4820.000000	92.301	18.4192
4870.000000	92.238	18.7439
4940.000000	92.145	19.1669
5000.000000	92.065	19.5140
5080.000000	91.956	20.0050
5150.000000	91.855	20.4643
5220.000000	91.758	20.9056
5300.000000	91.633	21.5547
5380.000000	91.522	22.1803
5450.000000	91.421	22.8202
5520.000000	91.304	23.5573
5600.000000	91.185	24.4661
5700.000000	91.056	25.7033
5800.000000	90.960	26.9960
5900.000000	90.880	28.3164
6000.000000	90.830	29.7386
6080.000000	90.806	30.8469
6150.000000	90.808	31.8097
6220.000000	90.822	32.7904
6300.000000	90.849	33.8795
6400.000000	90.917	35.1900
6500.000000	91.017	36.4781
6600.000000	91.144	37.6676
6700.000000	91.310	38.7750
6800.000000	91.505	39.7365
6900.000000	91.775	40.5853
7000.000000	92.124	41.1726
7100.000000	92.508	41.5643
7200.000000	92.942	41.6315
7300.000000	93.398	41.3083
7400.000000	93.892	40.5974
7500.000000	94.428	39.3754
7620.000000	95.119	37.0458
7750.000000	95.990	33.0179
7880.000000	96.626	27.0534
8000.000000	97.046	19.6245
8120.000000	97.176	10.6913
8250.000000	96.849	0.3641
8380.000000	96.059	-8.9600
8500.000000	95.051	-15.7229
8620.000000	93.940	-20.5202
8750.000000	92.687	-23.8406
8850.000000	91.770	-25.3232
9000.000000	90.496	-26.2496
9120.000000	89.583	-26.2372
9250.000000	88.695	-25.6945
9380.000000	87.907	-24.7941
9500.000000	87.267	-23.7926
9620.000000	86.703	-22.5444
9750.000000	86.156	-21.2887
9880.000000	85.710	-19.9857
10000.000000	85.376	-18.9083
10150.000000	85.010	-17.5229
10300.000000	84.753	-16.4866
10440.000000	84.565	-15.8465
10600.000000	84.453	-15.3999
10750.000000	84.373	-15.5728
10900.000000	84.355	-16.3048
11060.000000	84.297	-17.7941
11200.000000	84.284	-19.3429
11380.000000	84.205	-22.0863
11500.000000	84.090	-24.0219
11720.000000	83.860	-27.7360
11800.000000	83.756	-29.0586
12060.000000	83.359	-32.9396
12200.000000	83.204	-35.1547
12410.000000	83.035	-38.0527
12500.000000	82.990	-39.4006
12650.000000	82.949	-41.7483
12800.000000	82.939	-44.2260
13150.000000	83.073	-51.3362
13200.000000	83.092	-52.5748
13400.000000	83.260	-57.9744
13600.000000	83.435	-64.4561
13800.000000	83.661	-72.0861
14000.000000	83.882	-81.0764
14300.000000	84.042	-96.7576
14500.000000	83.976	-108.6059
14750.000000	83.713	-124.5399
15000.000000	83.163	-141.2844
15250.000000	82.452	-157.7395
15500.000000	81.600	-174.1592
15750.000000	80.646	169.8616
16000.000000	79.774	154.2616
16250.000000	78.965	138.7472
16500.000000	78.328	123.3300
16750.000000	77.768	107.7934
17000.000000	77.443	91.7559
17250.000000	77.276	74.7054
17500.000000	77.214	55.8076
17750.000000	77.380	34.4777
18000.000000	77.666	10.5100
18250.000000	78.768	-16.2693
18500.000000	79.582	-67.3319
18750.000000	76.656	-116.2036
19000.000000	73.319	-157.1607
19250.000000	69.651	163.6365
19500.000000	65.887	125.7037
19750.000000	61.417	79.0819
