* Measurement data measured by REW V5.20.4
* Source: Microphone (2- KM-HIFI-384KHZ), MICROPHONE (Master Volume), R, volume: 0.250
* Format: 256k Log Swept Sine, 1 sweep at -6.0 dBFS with no timing reference
* Dated: 21 Mar, 2022 3:01:56 PM
* REW Settings:
*  C-weighting compensation: Off
*  Target level: 75.0 dB
* Note: 
* Measurement: B2 Flat
* Smoothing: None
* Frequency Step: 1/48 octave
* Start Frequency: 20.000 Hz
*
* Freq(Hz)	SPL(dB)	Phase(degrees)
20.000000	98.041	-171.5835
20.299999	98.053	-172.1425
20.600000	98.063	-172.7000
20.900000	98.070	-173.2448
21.200001	98.074	-173.7813
21.400000	98.077	-174.1282
21.799999	98.083	-174.7913
22.000000	98.085	-175.1118
22.400000	98.092	-175.7535
22.700001	98.098	-176.2306
23.000000	98.103	-176.7088
23.299999	98.105	-177.1910
23.600000	98.106	-177.6633
24.000000	98.105	-178.2680
24.299999	98.106	-178.7066
24.700001	98.107	-179.2774
25.000000	98.109	-179.7042
25.400000	98.111	179.7149
25.799999	98.109	179.1386
26.200001	98.104	178.5780
26.500000	98.099	178.1723
26.900000	98.090	177.6543
27.200001	98.081	177.2692
27.600000	98.069	176.7518
28.000000	98.053	176.2436
28.500000	98.029	175.6431
29.000000	98.006	175.1002
29.500000	97.990	174.5689
30.000000	97.975	174.0110
30.400000	97.961	173.5440
30.700001	97.948	173.2036
31.100000	97.929	172.7783
31.500000	97.912	172.3778
32.000000	97.895	171.8781
32.500000	97.878	171.3398
33.000000	97.854	170.7891
33.500000	97.821	170.2689
34.000000	97.789	169.7984
34.500000	97.765	169.3402
35.000000	97.742	168.8774
35.500000	97.717	168.4171
36.000000	97.691	167.9814
36.500000	97.665	167.5634
37.000000	97.639	167.1566
37.500000	97.612	166.7595
38.200001	97.575	166.2364
38.700001	97.548	165.8652
39.500000	97.502	165.2486
40.000000	97.471	164.8643
40.599998	97.432	164.4056
41.200001	97.390	163.9391
41.799999	97.342	163.4893
42.500000	97.282	163.0404
43.099998	97.240	162.6968
43.700001	97.203	162.3369
44.400002	97.159	161.9007
45.000000	97.122	161.5297
45.500000	97.090	161.2122
46.200001	97.041	160.7807
46.799999	96.998	160.4658
47.500000	96.957	160.1203
48.200001	96.917	159.7057
48.700001	96.881	159.3983
49.400002	96.825	159.0488
50.000000	96.786	158.7875
50.799999	96.738	158.3622
51.500000	96.683	157.9822
52.200001	96.628	157.6940
53.000000	96.581	157.3806
53.799999	96.534	156.9777
54.500000	96.480	156.6207
55.200001	96.423	156.3464
56.000000	96.371	156.0729
57.000000	96.305	155.5912
58.000000	96.212	155.2306
59.000000	96.150	154.9857
60.000000	96.080	154.5203
60.799999	96.011	154.2440
61.500000	95.964	154.0336
62.200001	95.916	153.7676
63.000000	95.854	153.5175
64.000000	95.791	153.2434
65.000000	95.724	152.9059
66.000000	95.653	152.6562
67.000000	95.589	152.4089
68.000000	95.523	152.1852
69.000000	95.464	151.9321
70.000000	95.393	151.6266
71.000000	95.314	151.4182
72.000000	95.251	151.2544
73.000000	95.189	151.0043
74.000000	95.121	150.7861
75.000000	95.057	150.5684
76.199997	94.978	150.3495
77.500000	94.898	150.0708
78.800003	94.810	149.8652
80.000000	94.734	149.6559
81.199997	94.658	149.5464
82.500000	94.590	149.3141
83.800003	94.505	149.1127
85.000000	94.430	148.9507
86.199997	94.356	148.8255
87.500000	94.280	148.6504
88.500000	94.219	148.5461
90.000000	94.131	148.4069
91.199997	94.064	148.2976
92.500000	93.988	148.1748
93.800003	93.913	148.0822
95.000000	93.841	147.9633
96.199997	93.772	147.9037
97.500000	93.702	147.7799
98.800003	93.645	147.6812
100.000000	93.565	147.4163
101.500000	93.473	147.5680
103.000000	93.408	147.4767
104.400002	93.340	147.4384
106.000000	93.255	147.3803
107.500000	93.176	147.3124
109.000000	93.095	147.3228
110.599998	93.022	147.2460
112.000000	92.943	147.2437
113.800003	92.852	147.2432
115.000000	92.795	147.2561
117.199997	92.683	147.2195
118.000000	92.642	147.2169
120.599998	92.518	147.2346
122.000000	92.453	147.2351
124.099998	92.361	147.3013
125.000000	92.322	147.3201
126.500000	92.256	147.3168
128.000000	92.180	147.3493
131.500000	92.017	147.5494
132.000000	92.000	147.5654
134.000000	91.905	147.6402
136.000000	91.826	147.7531
138.000000	91.754	147.8393
140.000000	91.659	148.0526
143.000000	91.562	148.2203
145.000000	91.481	148.2422
147.500000	91.383	148.4688
150.000000	91.281	148.5195
152.500000	91.174	148.7565
155.000000	91.063	148.9644
157.500000	90.957	149.2333
160.000000	90.834	149.4427
162.500000	90.730	149.9483
165.000000	90.642	150.2508
167.500000	90.515	150.9654
170.000000	90.421	151.6951
172.500000	90.348	152.5071
175.000000	90.377	153.7969
177.500000	90.454	154.2759
180.000000	90.555	154.4043
182.500000	90.616	154.0925
185.000000	90.624	153.5784
187.500000	90.566	153.0903
190.000000	90.507	152.8549
192.500000	90.450	152.7495
195.000000	90.359	152.6778
197.500000	90.280	152.6874
200.000000	90.215	152.7050
203.000000	90.132	152.8391
206.000000	90.056	152.9868
209.000000	89.977	153.1789
212.000000	89.899	153.3712
214.000000	89.858	153.4779
218.000000	89.762	153.7989
220.000000	89.709	153.9818
224.000000	89.616	154.2888
227.000000	89.552	154.4993
230.000000	89.493	154.7674
233.000000	89.426	155.0254
236.000000	89.364	155.2999
240.000000	89.281	155.6562
243.000000	89.227	155.9226
247.000000	89.158	156.2986
250.000000	89.108	156.6143
254.000000	89.049	157.0442
258.000000	88.995	157.4301
262.000000	88.944	157.8061
265.000000	88.908	158.0543
269.000000	88.858	158.3527
272.000000	88.815	158.5985
276.000000	88.758	158.9117
280.000000	88.696	159.2410
285.000000	88.629	159.7105
290.000000	88.557	160.1710
295.000000	88.501	160.6685
300.000000	88.447	161.1204
304.000000	88.410	161.4639
307.000000	88.378	161.6949
311.000000	88.335	162.0199
315.000000	88.290	162.3268
320.000000	88.232	162.7516
325.000000	88.179	163.1592
330.000000	88.126	163.5514
335.000000	88.078	163.9899
340.000000	88.028	164.4076
345.000000	87.984	164.8184
350.000000	87.941	165.2731
355.000000	87.901	165.6678
360.000000	87.857	166.0711
365.000000	87.819	166.4969
370.000000	87.781	166.9166
375.000000	87.747	167.3158
382.000000	87.695	167.9191
387.000000	87.660	168.3235
395.000000	87.606	168.9742
400.000000	87.572	169.3857
406.000000	87.535	169.8563
412.000000	87.498	170.3396
418.000000	87.466	170.8388
425.000000	87.423	171.3755
431.000000	87.390	171.8597
437.000000	87.358	172.3372
444.000000	87.320	172.8951
450.000000	87.292	173.3741
455.000000	87.266	173.7681
462.000000	87.234	174.3087
468.000000	87.209	174.7763
475.000000	87.175	175.2997
482.000000	87.149	175.8443
487.000000	87.134	176.2409
494.000000	87.109	176.7603
500.000000	87.090	177.2296
508.000000	87.065	177.8459
515.000000	87.047	178.3624
522.000000	87.027	178.8869
530.000000	87.009	179.5082
538.000000	86.990	-179.9035
545.000000	86.975	-179.3669
552.000000	86.962	-178.8422
560.000000	86.945	-178.2343
570.000000	86.931	-177.5083
580.000000	86.915	-176.7513
590.000000	86.905	-176.0432
600.000000	86.890	-175.2757
608.000000	86.881	-174.7115
615.000000	86.872	-174.1745
622.000000	86.865	-173.6604
630.000000	86.856	-173.1036
640.000000	86.854	-172.3363
650.000000	86.846	-171.6329
660.000000	86.848	-170.8687
670.000000	86.845	-170.1571
680.000000	86.847	-169.3946
690.000000	86.842	-168.7068
700.000000	86.848	-167.9566
710.000000	86.853	-167.2496
720.000000	86.858	-166.5085
730.000000	86.876	-165.8373
740.000000	86.881	-165.0926
750.000000	86.897	-164.3828
762.000000	86.919	-163.5284
775.000000	86.940	-162.6261
788.000000	86.969	-161.7347
800.000000	86.994	-160.9187
812.000000	87.032	-160.1061
825.000000	87.078	-159.2185
838.000000	87.120	-158.3918
850.000000	87.162	-157.6593
862.000000	87.206	-156.9201
875.000000	87.254	-156.1327
885.000000	87.295	-155.5432
900.000000	87.347	-154.7102
912.000000	87.391	-154.0104
925.000000	87.423	-153.2459
938.000000	87.475	-152.2170
950.000000	87.588	-151.2726
962.000000	87.686	-150.8200
975.000000	87.747	-150.2347
988.000000	87.795	-149.2680
1000.000000	87.920	-148.0159
1015.000000	88.217	-147.3404
1030.000000	88.397	-147.5107
1044.000000	88.497	-147.5434
1060.000000	88.596	-147.3809
1075.000000	88.691	-147.1773
1090.000000	88.768	-146.9126
1106.000000	88.849	-146.6359
1120.000000	88.917	-146.4351
1138.000000	89.003	-146.1633
1150.000000	89.062	-145.9993
1172.000000	89.160	-145.6970
1180.000000	89.195	-145.6345
1206.000000	89.304	-145.3474
1220.000000	89.384	-145.1594
1241.000000	89.521	-144.9908
1250.000000	89.570	-144.9094
1265.000000	89.661	-144.7757
1280.000000	89.752	-144.6497
1315.000000	89.948	-144.3056
1320.000000	89.976	-144.2979
1340.000000	90.084	-144.1206
1360.000000	90.240	-143.9230
1380.000000	90.355	-143.7951
1400.000000	90.462	-143.6349
1430.000000	90.629	-143.4109
1450.000000	90.737	-143.2532
1475.000000	90.870	-143.0358
1500.000000	91.001	-142.8877
1525.000000	91.135	-142.6948
1550.000000	91.234	-142.5385
1575.000000	91.337	-142.3876
1600.000000	91.439	-142.2197
1625.000000	91.538	-142.1048
1650.000000	91.637	-141.9557
1675.000000	91.736	-141.8084
1700.000000	91.836	-141.7295
1725.000000	91.935	-141.6397
1750.000000	92.037	-141.5656
1775.000000	92.136	-141.5208
1800.000000	92.239	-141.4671
1825.000000	92.336	-141.4186
1850.000000	92.434	-141.3793
1875.000000	92.530	-141.3987
1900.000000	92.626	-141.3900
1925.000000	92.723	-141.4508
1950.000000	92.815	-141.5212
1975.000000	92.905	-141.5642
2000.000000	92.996	-141.6672
2030.000000	93.101	-141.7859
2060.000000	93.203	-141.9228
2090.000000	93.306	-142.0934
2120.000000	93.401	-142.2913
2140.000000	93.465	-142.4375
2180.000000	93.589	-142.7301
2200.000000	93.646	-142.9196
2240.000000	93.761	-143.2766
2270.000000	93.841	-143.5733
2300.000000	93.921	-143.8688
2330.000000	93.993	-144.2071
2360.000000	94.064	-144.5398
2400.000000	94.151	-145.0074
2430.000000	94.212	-145.3797
2470.000000	94.287	-145.8754
2500.000000	94.338	-146.2574
2540.000000	94.401	-146.7824
2580.000000	94.461	-147.3051
2620.000000	94.507	-147.8270
2650.000000	94.538	-148.2260
2690.000000	94.576	-148.7464
2720.000000	94.596	-149.1171
2760.000000	94.622	-149.6275
2800.000000	94.644	-150.1402
2850.000000	94.658	-150.7118
2900.000000	94.667	-151.2818
2950.000000	94.669	-151.8309
3000.000000	94.662	-152.3352
3040.000000	94.654	-152.7051
3070.000000	94.649	-152.9878
3110.000000	94.631	-153.3389
3150.000000	94.614	-153.6585
3200.000000	94.585	-154.0501
3250.000000	94.559	-154.3985
3300.000000	94.524	-154.7290
3350.000000	94.492	-155.0161
3400.000000	94.459	-155.2717
3450.000000	94.424	-155.5130
3500.000000	94.389	-155.7372
3550.000000	94.357	-155.9245
3600.000000	94.323	-156.1204
3650.000000	94.288	-156.2995
3700.000000	94.256	-156.4566
3750.000000	94.221	-156.5875
3820.000000	94.174	-156.8114
3870.000000	94.139	-156.9320
3950.000000	94.084	-157.1534
4000.000000	94.046	-157.2745
4060.000000	94.000	-157.4444
4120.000000	93.958	-157.6281
4180.000000	93.908	-157.8067
4250.000000	93.850	-158.0453
4310.000000	93.795	-158.2703
4370.000000	93.739	-158.4990
4440.000000	93.663	-158.7585
4500.000000	93.598	-159.0100
4550.000000	93.538	-159.1975
4620.000000	93.441	-159.4713
4680.000000	93.347	-159.6963
4750.000000	93.228	-159.8979
4820.000000	93.108	-160.0307
4870.000000	93.007	-160.1315
4940.000000	92.860	-160.1932
5000.000000	92.728	-160.2210
5080.000000	92.548	-160.2110
5150.000000	92.377	-160.1165
5220.000000	92.200	-159.9639
5300.000000	91.988	-159.6436
5380.000000	91.775	-159.2230
5450.000000	91.583	-158.7407
5520.000000	91.370	-158.1221
5600.000000	91.128	-157.1877
5700.000000	90.843	-155.5512
5800.000000	90.686	-153.4855
5900.000000	90.611	-152.3942
6000.000000	90.435	-151.4123
6080.000000	90.279	-150.3542
6150.000000	90.168	-149.3443
6220.000000	90.054	-148.2258
6300.000000	89.953	-146.8007
6400.000000	89.853	-145.0114
6500.000000	89.789	-143.1136
6600.000000	89.773	-141.2631
6700.000000	89.793	-139.3754
6800.000000	89.860	-137.6750
6900.000000	89.995	-135.9709
7000.000000	90.224	-134.4462
7100.000000	90.507	-133.1922
7200.000000	90.841	-132.3211
7300.000000	91.204	-131.7827
7400.000000	91.605	-131.8904
7500.000000	92.015	-132.5998
7620.000000	92.517	-134.3414
7750.000000	93.111	-137.5849
7880.000000	93.386	-142.3760
8000.000000	93.438	-148.1163
8120.000000	93.187	-154.5006
8250.000000	92.556	-161.1666
8380.000000	91.614	-166.6376
8500.000000	90.574	-170.1242
8620.000000	89.465	-172.2804
8750.000000	88.214	-173.0933
8850.000000	87.254	-172.8352
9000.000000	85.889	-171.4565
9120.000000	84.839	-169.4033
9250.000000	83.745	-166.6678
9380.000000	82.708	-163.3301
9500.000000	81.809	-159.8657
9620.000000	80.984	-155.8972
9750.000000	80.107	-151.4328
9880.000000	79.296	-146.6943
10000.000000	78.567	-142.0289
10150.000000	77.747	-135.5440
10300.000000	76.906	-128.9321
10440.000000	76.215	-122.0183
10600.000000	75.535	-113.8783
10750.000000	74.986	-104.6895
10900.000000	74.502	-94.9643
11060.000000	74.302	-83.5504
11200.000000	74.380	-73.1263
11380.000000	75.075	-60.8925
11500.000000	75.778	-53.9110
11720.000000	77.080	-46.5169
11800.000000	77.483	-44.5421
12060.000000	78.343	-40.8528
12200.000000	78.665	-38.0223
12410.000000	79.106	-33.3709
12500.000000	79.306	-31.4180
12650.000000	79.691	-27.4503
12800.000000	80.163	-23.6216
13150.000000	81.358	-13.7489
13200.000000	81.577	-11.9957
13400.000000	83.028	-5.0264
13600.000000	84.900	-2.4599
13800.000000	86.936	-3.1791
14000.000000	89.123	-8.0782
14300.000000	91.852	-29.3353
14500.000000	91.860	-48.7538
14750.000000	90.064	-65.9771
15000.000000	87.948	-71.7162
15250.000000	86.355	-71.6900
15500.000000	85.220	-69.7225
15750.000000	84.441	-67.4988
16000.000000	83.937	-66.3634
16250.000000	83.479	-66.5729
16500.000000	82.941	-68.7069
16750.000000	82.105	-71.6624
17000.000000	80.859	-74.6295
17250.000000	79.340	-75.7033
17500.000000	77.603	-74.5032
17750.000000	75.736	-70.9827
18000.000000	74.007	-65.7373
18250.000000	72.428	-58.5828
18500.000000	71.023	-51.5503
18750.000000	69.710	-42.7302
19000.000000	68.481	-34.9121
19250.000000	67.400	-25.0094
19500.000000	66.433	-15.7152
19750.000000	65.653	-6.4269
