* Measurement data measured by REW V5.20.4
* Source: Microphone (2- KM-HIFI-384KHZ), MICROPHONE (Master Volume), L, volume: 0.250
* Format: 256k Log Swept Sine, 1 sweep at -6.0 dBFS with no timing reference
* Dated: 21 Mar, 2022 3:05:59 PM
* REW Settings:
*  C-weighting compensation: Off
*  Target level: 75.0 dB
* Note: 
* Measurement: B2 Flat
* Smoothing: None
* Frequency Step: 1/48 octave
* Start Frequency: 20.000 Hz
*
* Freq(Hz)	SPL(dB)	Phase(degrees)
20.000000	94.035	-156.0695
20.299999	94.069	-156.6316
20.600000	94.102	-157.1736
20.900000	94.135	-157.6953
21.200001	94.169	-158.2161
21.400000	94.193	-158.5638
21.799999	94.239	-159.2557
22.000000	94.260	-159.6010
22.400000	94.301	-160.2964
22.700001	94.328	-160.8029
23.000000	94.354	-161.2934
23.299999	94.379	-161.7752
23.600000	94.403	-162.2440
24.000000	94.436	-162.8540
24.299999	94.461	-163.3092
24.700001	94.493	-163.9122
25.000000	94.515	-164.3596
25.400000	94.542	-164.9523
25.799999	94.565	-165.5239
26.200001	94.587	-166.0766
26.500000	94.603	-166.4811
26.900000	94.622	-167.0037
27.200001	94.633	-167.3926
27.600000	94.648	-167.9119
28.000000	94.662	-168.4262
28.500000	94.677	-169.0666
29.000000	94.689	-169.6972
29.500000	94.698	-170.3289
30.000000	94.703	-170.9477
30.400000	94.706	-171.4272
30.700001	94.708	-171.7670
31.100000	94.711	-172.1971
31.500000	94.717	-172.6163
32.000000	94.727	-173.1486
32.500000	94.736	-173.7127
33.000000	94.740	-174.2848
33.500000	94.734	-174.8319
34.000000	94.728	-175.3285
34.500000	94.731	-175.8027
35.000000	94.737	-176.2853
35.500000	94.742	-176.7916
36.000000	94.742	-177.2920
36.500000	94.738	-177.7618
37.000000	94.735	-178.1994
37.500000	94.734	-178.6337
38.200001	94.729	-179.2399
38.700001	94.720	-179.6532
39.500000	94.708	179.7045
40.000000	94.700	179.2735
40.599998	94.680	178.7440
41.200001	94.649	178.2912
41.799999	94.623	177.9337
42.500000	94.611	177.5275
43.099998	94.606	177.1104
43.700001	94.597	176.6470
44.400002	94.579	176.1017
45.000000	94.560	175.6528
45.500000	94.543	175.2957
46.200001	94.519	174.8233
46.799999	94.500	174.4335
47.500000	94.478	173.9957
48.200001	94.458	173.5752
48.700001	94.446	173.2705
49.400002	94.426	172.8239
50.000000	94.404	172.4391
50.799999	94.368	171.9727
51.500000	94.338	171.6019
52.200001	94.310	171.2204
53.000000	94.274	170.7902
53.799999	94.240	170.3967
54.500000	94.212	170.0139
55.200001	94.177	169.6210
56.000000	94.138	169.2351
57.000000	94.095	168.6637
58.000000	94.024	168.2407
59.000000	94.002	167.9825
60.000000	93.970	167.3561
60.799999	93.915	167.0244
61.500000	93.889	166.8480
62.200001	93.872	166.5503
63.000000	93.833	166.1837
64.000000	93.785	165.8552
65.000000	93.744	165.4803
66.000000	93.696	165.1368
67.000000	93.656	164.7989
68.000000	93.610	164.4248
69.000000	93.563	164.0822
70.000000	93.514	163.7319
71.000000	93.463	163.4452
72.000000	93.421	163.1477
73.000000	93.372	162.8327
74.000000	93.324	162.5547
75.000000	93.274	162.2647
76.199997	93.221	161.9804
77.500000	93.158	161.5675
78.800003	93.097	161.2722
80.000000	93.034	160.9299
81.199997	92.985	160.7607
82.500000	92.931	160.3553
83.800003	92.866	160.1662
85.000000	92.816	159.8762
86.199997	92.754	159.6755
87.500000	92.697	159.4171
88.500000	92.649	159.2365
90.000000	92.578	158.9859
91.199997	92.528	158.8075
92.500000	92.468	158.5881
93.800003	92.410	158.4036
95.000000	92.346	158.2221
96.199997	92.299	158.1044
97.500000	92.239	157.8443
98.800003	92.201	157.6193
100.000000	92.112	157.2522
101.500000	92.053	157.4081
103.000000	91.993	157.1443
104.400002	91.939	157.0936
106.000000	91.877	156.9081
107.500000	91.799	156.7891
109.000000	91.741	156.7307
110.599998	91.672	156.5715
112.000000	91.608	156.4840
113.800003	91.532	156.4041
115.000000	91.488	156.3055
117.199997	91.403	156.1286
118.000000	91.368	156.0716
120.599998	91.262	155.9720
122.000000	91.214	155.9209
124.099998	91.113	155.7529
125.000000	91.092	155.6921
126.500000	91.019	155.6526
128.000000	91.004	155.5492
131.500000	90.885	155.5632
132.000000	90.834	155.4897
134.000000	90.757	155.6485
136.000000	90.632	155.5369
138.000000	90.586	155.7564
140.000000	90.497	155.9233
143.000000	90.402	155.5533
145.000000	90.308	155.7509
147.500000	90.309	155.5586
150.000000	90.077	155.9577
152.500000	89.992	156.2544
155.000000	89.910	156.1831
157.500000	89.834	156.4835
160.000000	89.740	157.2073
162.500000	89.661	158.0446
165.000000	89.380	158.0442
167.500000	89.581	158.2002
170.000000	89.621	158.5284
172.500000	89.655	158.5598
175.000000	89.446	158.4675
177.500000	89.540	158.5002
180.000000	89.519	158.6052
182.500000	89.447	158.6661
185.000000	89.430	158.6382
187.500000	89.446	158.6742
190.000000	89.378	158.8476
192.500000	89.302	158.4804
195.000000	89.235	158.5097
197.500000	89.223	158.3781
200.000000	89.182	158.4535
203.000000	89.091	158.4841
206.000000	88.997	158.3793
209.000000	88.968	158.5704
212.000000	88.908	158.7534
214.000000	88.853	158.8970
218.000000	88.739	159.1271
220.000000	88.714	159.1094
224.000000	88.628	159.4379
227.000000	88.572	159.5483
230.000000	88.531	159.6706
233.000000	88.465	159.9656
236.000000	88.407	160.0273
240.000000	88.334	160.4087
243.000000	88.277	160.6610
247.000000	88.204	160.7948
250.000000	88.169	161.1186
254.000000	88.098	161.4035
258.000000	88.033	161.7262
262.000000	87.964	162.0486
265.000000	87.935	162.3193
269.000000	87.872	162.6703
272.000000	87.843	162.9532
276.000000	87.797	163.2697
280.000000	87.745	163.5285
285.000000	87.699	163.8662
290.000000	87.628	164.3031
295.000000	87.556	164.6434
300.000000	87.493	165.1098
304.000000	87.452	165.4917
307.000000	87.423	165.7735
311.000000	87.394	166.1389
315.000000	87.365	166.3996
320.000000	87.328	166.7195
325.000000	87.279	167.0518
330.000000	87.236	167.3757
335.000000	87.193	167.6925
340.000000	87.139	168.0417
345.000000	87.093	168.3785
350.000000	87.050	168.7229
355.000000	87.006	169.1098
360.000000	86.963	169.4726
365.000000	86.927	169.8227
370.000000	86.879	170.2485
375.000000	86.856	170.6116
382.000000	86.797	171.1177
387.000000	86.754	171.4858
395.000000	86.704	172.0675
400.000000	86.670	172.5059
406.000000	86.638	173.0208
412.000000	86.594	173.3743
418.000000	86.556	173.8677
425.000000	86.511	174.3622
431.000000	86.475	174.8181
437.000000	86.443	175.2835
444.000000	86.404	175.8290
450.000000	86.369	176.2903
455.000000	86.347	176.6786
462.000000	86.313	177.1953
468.000000	86.284	177.6877
475.000000	86.251	178.2298
482.000000	86.226	178.7464
487.000000	86.204	179.1335
494.000000	86.183	179.6193
500.000000	86.161	-179.8919
508.000000	86.137	-179.2849
515.000000	86.115	-178.7419
522.000000	86.098	-178.2139
530.000000	86.080	-177.6062
538.000000	86.059	-176.9668
545.000000	86.042	-176.4200
552.000000	86.030	-175.9088
560.000000	86.012	-175.2882
570.000000	85.997	-174.5140
580.000000	85.984	-173.7371
590.000000	85.975	-172.9643
600.000000	85.968	-172.1786
608.000000	85.957	-171.5800
615.000000	85.954	-171.0113
622.000000	85.956	-170.4864
630.000000	85.950	-169.8504
640.000000	85.951	-169.0766
650.000000	85.954	-168.3284
660.000000	85.961	-167.5488
670.000000	85.971	-166.7867
680.000000	85.979	-166.0007
690.000000	85.988	-165.2919
700.000000	86.002	-164.5348
710.000000	86.023	-163.7974
720.000000	86.041	-163.0833
730.000000	86.060	-162.3692
740.000000	86.084	-161.6365
750.000000	86.112	-160.9773
762.000000	86.149	-160.1202
775.000000	86.185	-159.2617
788.000000	86.233	-158.3734
800.000000	86.273	-157.6026
812.000000	86.316	-156.8741
825.000000	86.370	-156.0683
838.000000	86.425	-155.2400
850.000000	86.477	-154.5454
862.000000	86.533	-153.8651
875.000000	86.599	-153.1294
885.000000	86.648	-152.5884
900.000000	86.725	-151.7872
912.000000	86.791	-151.1297
925.000000	86.865	-150.4937
938.000000	86.944	-149.7431
950.000000	87.037	-149.1367
962.000000	87.148	-148.8478
975.000000	87.220	-148.5029
988.000000	87.286	-148.0596
1000.000000	87.354	-147.6568
1015.000000	87.430	-147.0670
1030.000000	87.541	-146.3582
1044.000000	87.663	-145.9555
1060.000000	87.782	-145.6122
1075.000000	87.885	-145.2868
1090.000000	87.971	-144.9942
1106.000000	88.058	-144.7164
1120.000000	88.130	-144.4664
1138.000000	88.225	-144.1704
1150.000000	88.277	-143.9807
1172.000000	88.382	-143.7288
1180.000000	88.422	-143.6505
1206.000000	88.535	-143.3177
1220.000000	88.617	-143.1688
1241.000000	88.743	-142.9713
1250.000000	88.800	-142.8754
1265.000000	88.892	-142.7431
1280.000000	88.981	-142.5911
1315.000000	89.181	-142.2682
1320.000000	89.204	-142.2310
1340.000000	89.315	-142.0767
1360.000000	89.461	-141.8832
1380.000000	89.574	-141.7140
1400.000000	89.684	-141.5431
1430.000000	89.843	-141.2774
1450.000000	89.957	-141.1124
1475.000000	90.087	-140.8777
1500.000000	90.218	-140.6673
1525.000000	90.343	-140.4879
1550.000000	90.447	-140.2385
1575.000000	90.553	-140.0516
1600.000000	90.650	-139.8561
1625.000000	90.749	-139.6568
1650.000000	90.849	-139.4922
1675.000000	90.951	-139.2936
1700.000000	91.054	-139.1349
1725.000000	91.155	-138.9934
1750.000000	91.257	-138.8329
1775.000000	91.362	-138.7262
1800.000000	91.465	-138.6446
1825.000000	91.571	-138.5427
1850.000000	91.668	-138.4771
1875.000000	91.777	-138.3783
1900.000000	91.883	-138.3340
1925.000000	91.979	-138.3173
1950.000000	92.083	-138.3073
1975.000000	92.180	-138.3211
2000.000000	92.280	-138.3657
2030.000000	92.395	-138.4128
2060.000000	92.512	-138.5186
2090.000000	92.623	-138.6224
2120.000000	92.735	-138.7731
2140.000000	92.808	-138.8819
2180.000000	92.949	-139.1050
2200.000000	93.018	-139.2810
2240.000000	93.152	-139.5857
2270.000000	93.250	-139.8796
2300.000000	93.344	-140.2003
2330.000000	93.435	-140.4726
2360.000000	93.520	-140.8065
2400.000000	93.628	-141.2927
2430.000000	93.708	-141.6624
2470.000000	93.803	-142.1878
2500.000000	93.871	-142.5874
2540.000000	93.957	-143.1544
2580.000000	94.033	-143.7373
2620.000000	94.099	-144.3296
2650.000000	94.144	-144.7933
2690.000000	94.197	-145.3764
2720.000000	94.232	-145.8405
2760.000000	94.269	-146.4412
2800.000000	94.302	-147.0097
2850.000000	94.332	-147.7451
2900.000000	94.349	-148.4260
2950.000000	94.360	-149.1265
3000.000000	94.357	-149.7553
3040.000000	94.355	-150.2471
3070.000000	94.346	-150.5975
3110.000000	94.330	-151.0684
3150.000000	94.313	-151.4767
3200.000000	94.282	-151.9839
3250.000000	94.248	-152.4249
3300.000000	94.207	-152.8476
3350.000000	94.165	-153.2214
3400.000000	94.122	-153.5598
3450.000000	94.076	-153.8614
3500.000000	94.032	-154.1049
3550.000000	93.982	-154.3531
3600.000000	93.935	-154.5632
3650.000000	93.889	-154.7289
3700.000000	93.841	-154.8794
3750.000000	93.791	-155.0359
3820.000000	93.728	-155.1621
3870.000000	93.678	-155.2805
3950.000000	93.603	-155.3741
4000.000000	93.560	-155.4324
4060.000000	93.501	-155.5244
4120.000000	93.449	-155.5540
4180.000000	93.396	-155.6188
4250.000000	93.329	-155.6371
4310.000000	93.271	-155.6972
4370.000000	93.220	-155.7606
4440.000000	93.151	-155.8310
4500.000000	93.096	-155.8879
4550.000000	93.038	-155.9557
4620.000000	92.953	-156.0333
4680.000000	92.882	-156.0929
4750.000000	92.783	-156.1616
4820.000000	92.676	-156.1298
4870.000000	92.593	-156.1018
4940.000000	92.470	-155.9903
5000.000000	92.369	-155.8609
5080.000000	92.223	-155.6359
5150.000000	92.094	-155.3981
5220.000000	91.962	-155.1313
5300.000000	91.800	-154.7852
5380.000000	91.621	-154.3154
5450.000000	91.443	-153.7681
5520.000000	91.246	-152.8508
5600.000000	91.100	-151.1213
5700.000000	91.135	-150.0196
5800.000000	91.004	-149.6973
5900.000000	90.817	-148.9846
6000.000000	90.643	-147.9109
6080.000000	90.513	-146.9529
6150.000000	90.413	-145.9779
6220.000000	90.322	-144.9653
6300.000000	90.241	-143.7385
6400.000000	90.163	-142.1216
6500.000000	90.111	-140.5224
6600.000000	90.091	-138.8474
6700.000000	90.117	-137.2054
6800.000000	90.175	-135.5401
6900.000000	90.306	-134.0323
7000.000000	90.521	-132.5733
7100.000000	90.795	-131.3160
7200.000000	91.103	-130.2137
7300.000000	91.456	-129.6598
7400.000000	91.859	-129.4071
7500.000000	92.294	-129.7249
7620.000000	92.857	-130.9793
7750.000000	93.572	-133.7078
7880.000000	94.022	-138.1801
8000.000000	94.279	-143.8052
8120.000000	94.293	-150.7636
8250.000000	93.911	-158.9485
8380.000000	93.115	-166.6155
8500.000000	92.075	-172.2747
8620.000000	90.854	-176.2910
8750.000000	89.412	-178.6476
8850.000000	88.298	-179.1858
9000.000000	86.685	-178.2107
9120.000000	85.460	-176.2594
9250.000000	84.239	-173.4172
9380.000000	83.086	-169.5681
9500.000000	82.133	-165.7754
9620.000000	81.271	-161.4589
9750.000000	80.399	-156.8113
9880.000000	79.611	-151.6494
10000.000000	78.928	-146.6630
10150.000000	78.168	-140.2448
10300.000000	77.426	-134.0801
10440.000000	76.880	-127.2065
10600.000000	76.252	-119.9620
10750.000000	75.726	-112.8670
10900.000000	75.259	-105.1422
11060.000000	74.857	-96.6469
11200.000000	74.598	-88.5522
11380.000000	74.444	-77.2697
11500.000000	74.509	-69.5951
11720.000000	75.090	-55.7971
11800.000000	75.489	-51.1534
12060.000000	76.922	-40.5579
12200.000000	77.572	-37.6151
12410.000000	78.412	-33.1500
12500.000000	78.707	-31.2386
12650.000000	79.132	-28.1065
12800.000000	79.657	-24.3739
13150.000000	81.020	-15.3653
13200.000000	81.233	-14.0067
13400.000000	82.304	-9.2183
13600.000000	83.632	-5.1295
13800.000000	85.331	-2.4812
14000.000000	87.365	-2.7888
14300.000000	90.836	-13.0688
14500.000000	92.467	-30.9382
14750.000000	91.910	-56.5322
15000.000000	89.678	-69.7320
15250.000000	87.663	-72.9351
15500.000000	86.144	-72.3738
15750.000000	85.086	-70.3027
16000.000000	84.268	-68.2537
16250.000000	83.735	-67.0771
16500.000000	83.211	-66.8505
16750.000000	82.654	-67.4512
17000.000000	82.130	-70.1486
17250.000000	80.956	-74.2962
17500.000000	79.219	-75.9020
17750.000000	77.396	-74.1095
18000.000000	75.619	-69.8315
18250.000000	73.907	-63.7771
18500.000000	72.396	-56.8447
18750.000000	70.968	-48.4347
19000.000000	69.834	-38.1395
19250.000000	68.667	-28.9229
19500.000000	67.911	-19.9436
19750.000000	67.153	-7.8583
