* Measurement data measured by REW V5.20.4
* Source: Headset (2- USB-C to 3.5mm Headphone Jack Adapter), MICROPHONE (Master Volume), R, volume: 0.260
* Format: 256k Log Swept Sine, 1 sweep at -6.0 dBFS with no timing reference
* Dated: 14 Apr, 2023 2:01:37 AM
* REW Settings:
*  C-weighting compensation: Off
*  Target level: 75.0 dB
* Note: 
* Measurement: MAKE4 V2 L
* Smoothing: None
* Frequency Step: 1/48 octave
* Start Frequency: 20.000 Hz
*
* Freq(Hz)	SPL(dB)	Phase(degrees)
20.000000	102.905	-148.3236
20.299999	102.929	-149.3293
20.600000	102.953	-150.3129
20.900000	102.975	-151.2825
21.200001	102.995	-152.2455
21.400000	103.007	-152.8848
21.799999	103.028	-154.1515
22.000000	103.035	-154.7747
22.400000	103.046	-155.9895
22.700001	103.050	-156.8668
23.000000	103.054	-157.7138
23.299999	103.059	-158.5361
23.600000	103.065	-159.3411
24.000000	103.076	-160.4012
24.299999	103.085	-161.1950
24.700001	103.097	-162.2570
25.000000	103.104	-163.0538
25.400000	103.108	-164.1065
25.799999	103.107	-165.1294
26.200001	103.103	-166.1058
26.500000	103.098	-166.8053
26.900000	103.092	-167.7036
27.200001	103.085	-168.3639
27.600000	103.078	-169.2416
28.000000	103.068	-170.1206
28.500000	103.049	-171.2038
29.000000	103.023	-172.2427
29.500000	102.996	-173.2365
30.000000	102.967	-174.2063
30.400000	102.946	-174.9708
30.700001	102.928	-175.5334
31.100000	102.903	-176.2631
31.500000	102.879	-176.9725
32.000000	102.851	-177.8488
32.500000	102.823	-178.7272
33.000000	102.792	-179.5931
33.500000	102.756	179.5735
34.000000	102.723	178.7635
34.500000	102.696	177.9521
35.000000	102.664	177.1443
35.500000	102.629	176.3763
36.000000	102.594	175.6609
36.500000	102.564	174.9623
37.000000	102.534	174.2427
37.500000	102.497	173.5204
38.200001	102.433	172.5995
38.700001	102.389	172.0057
39.500000	102.329	171.0113
40.000000	102.284	170.3485
40.599998	102.219	169.5986
41.200001	102.155	168.9473
41.799999	102.103	168.3242
42.500000	102.047	167.5244
43.099998	101.989	166.8210
43.700001	101.923	166.2164
44.400002	101.861	165.6181
45.000000	101.822	165.0539
45.500000	101.784	164.5271
46.200001	101.716	163.8445
46.799999	101.661	163.3552
47.500000	101.606	162.7680
48.200001	101.543	162.2074
48.700001	101.507	161.8765
49.400002	101.482	161.3119
50.000000	101.447	160.6076
50.799999	101.348	159.7975
51.500000	101.284	159.3853
52.200001	101.251	158.7403
53.000000	101.148	157.8262
53.799999	101.023	157.4758
54.500000	100.978	157.2466
55.200001	100.933	156.6929
56.000000	100.839	156.1646
57.000000	100.761	155.7037
58.000000	100.673	154.9625
59.000000	100.564	154.4686
60.000000	100.485	153.9252
60.799999	100.411	153.4063
61.500000	100.341	153.0135
62.200001	100.272	152.6562
63.000000	100.193	152.3144
64.000000	100.121	151.9707
65.000000	100.063	151.3533
66.000000	99.950	150.7578
67.000000	99.858	150.5049
68.000000	99.793	150.0529
69.000000	99.702	149.6071
70.000000	99.623	149.2330
71.000000	99.539	148.7930
72.000000	99.452	148.4415
73.000000	99.373	148.0880
74.000000	99.292	147.7350
75.000000	99.210	147.3888
76.199997	99.110	147.0149
77.500000	99.010	146.6461
78.800003	98.910	146.2379
80.000000	98.814	145.8957
81.199997	98.721	145.5707
82.500000	98.621	145.2418
83.800003	98.524	144.9077
85.000000	98.431	144.6318
86.199997	98.345	144.3739
87.500000	98.248	144.0805
88.500000	98.176	143.8903
90.000000	98.068	143.5741
91.199997	97.982	143.3679
92.500000	97.889	143.0924
93.800003	97.791	142.8922
95.000000	97.709	142.7092
96.199997	97.628	142.5248
97.500000	97.540	142.3203
98.800003	97.454	142.1406
100.000000	97.373	141.9797
101.500000	97.276	141.7697
103.000000	97.174	141.5955
104.400002	97.085	141.4378
106.000000	96.979	141.2589
107.500000	96.886	141.1374
109.000000	96.790	140.9778
110.599998	96.689	140.8542
112.000000	96.602	140.7365
113.800003	96.489	140.6017
115.000000	96.415	140.5276
117.199997	96.282	140.3710
118.000000	96.232	140.3363
120.599998	96.079	140.2153
122.000000	95.996	140.1641
124.099998	95.875	140.0817
125.000000	95.823	140.0685
126.500000	95.740	140.0277
128.000000	95.653	140.0007
131.500000	95.456	139.9493
132.000000	95.428	139.9472
134.000000	95.324	139.9596
136.000000	95.208	139.9549
138.000000	95.094	140.0495
140.000000	94.977	140.1560
143.000000	94.819	140.2746
145.000000	94.716	140.4724
147.500000	94.596	140.6984
150.000000	94.493	140.7610
152.500000	94.340	141.3485
155.000000	94.232	142.0897
157.500000	94.171	142.7676
160.000000	94.146	143.1629
162.500000	94.130	143.5675
165.000000	94.129	143.4143
167.500000	94.108	143.3419
170.000000	94.051	142.9931
172.500000	93.986	142.6420
175.000000	93.913	142.4379
177.500000	93.827	142.2616
180.000000	93.720	142.1343
182.500000	93.619	142.0412
185.000000	93.495	141.8251
187.500000	93.429	142.0231
190.000000	93.337	142.0469
192.500000	93.250	142.1434
195.000000	93.174	142.2023
197.500000	93.085	142.3219
200.000000	92.982	142.3981
203.000000	92.919	142.5071
206.000000	92.823	142.6169
209.000000	92.724	142.7904
212.000000	92.599	143.0284
214.000000	92.566	142.9648
218.000000	92.457	143.2029
220.000000	92.390	143.3546
224.000000	92.268	143.5685
227.000000	92.179	143.7791
230.000000	92.091	143.9847
233.000000	92.005	144.1957
236.000000	91.918	144.4046
240.000000	91.809	144.7157
243.000000	91.732	144.9319
247.000000	91.632	145.2449
250.000000	91.554	145.4685
254.000000	91.459	145.8102
258.000000	91.366	146.1465
262.000000	91.273	146.4614
265.000000	91.207	146.7173
269.000000	91.115	147.0705
272.000000	91.049	147.3163
276.000000	90.962	147.6735
280.000000	90.873	148.0163
285.000000	90.769	148.4741
290.000000	90.663	148.9169
295.000000	90.564	149.3671
300.000000	90.468	149.8115
304.000000	90.389	150.1728
307.000000	90.335	150.4518
311.000000	90.258	150.8428
315.000000	90.189	151.1902
320.000000	90.094	151.6643
325.000000	90.008	152.1288
330.000000	89.925	152.5626
335.000000	89.842	153.0684
340.000000	89.761	153.5312
345.000000	89.685	154.0046
350.000000	89.611	154.4891
355.000000	89.540	154.9602
360.000000	89.470	155.4498
365.000000	89.400	155.9194
370.000000	89.332	156.3840
375.000000	89.267	156.8634
382.000000	89.178	157.5194
387.000000	89.116	157.9987
395.000000	89.016	158.7827
400.000000	88.957	159.2469
406.000000	88.884	159.8310
412.000000	88.816	160.4323
418.000000	88.750	160.9770
425.000000	88.676	161.6545
431.000000	88.611	162.2239
437.000000	88.554	162.7967
444.000000	88.477	163.4874
450.000000	88.420	164.0176
455.000000	88.373	164.4951
462.000000	88.306	165.2076
468.000000	88.250	165.7745
475.000000	88.191	166.4311
482.000000	88.131	167.1227
487.000000	88.094	167.5644
494.000000	88.041	168.2605
500.000000	87.993	168.8482
508.000000	87.937	169.5862
515.000000	87.887	170.2623
522.000000	87.845	170.9417
530.000000	87.790	171.6851
538.000000	87.745	172.4439
545.000000	87.699	173.1336
552.000000	87.662	173.8025
560.000000	87.615	174.5736
570.000000	87.560	175.5161
580.000000	87.506	176.4624
590.000000	87.454	177.4446
600.000000	87.412	178.3894
608.000000	87.371	179.2007
615.000000	87.336	179.8728
622.000000	87.302	-179.4396
630.000000	87.264	-178.6319
640.000000	87.219	-177.6577
650.000000	87.177	-176.6100
660.000000	87.131	-175.5232
670.000000	87.090	-174.4435
680.000000	87.052	-173.2651
690.000000	87.017	-171.9767
700.000000	86.999	-170.6342
710.000000	87.010	-169.2307
720.000000	87.049	-167.8393
730.000000	87.137	-166.6642
740.000000	87.223	-165.7668
750.000000	87.285	-165.0657
762.000000	87.332	-164.2947
775.000000	87.347	-163.3724
788.000000	87.367	-162.3665
800.000000	87.402	-161.3907
812.000000	87.433	-160.3895
825.000000	87.472	-159.3867
838.000000	87.520	-158.3994
850.000000	87.562	-157.5070
862.000000	87.604	-156.6090
875.000000	87.651	-155.6690
885.000000	87.697	-154.9694
900.000000	87.747	-153.9312
912.000000	87.812	-153.0513
925.000000	87.876	-152.2028
938.000000	87.938	-151.3394
950.000000	88.000	-150.5784
962.000000	88.072	-149.8698
975.000000	88.154	-149.1308
988.000000	88.237	-148.4238
1000.000000	88.314	-147.7628
1015.000000	88.416	-146.9991
1030.000000	88.510	-146.2839
1044.000000	88.601	-145.6676
1060.000000	88.705	-144.9552
1075.000000	88.798	-144.3964
1090.000000	88.884	-143.8354
1106.000000	88.970	-143.2375
1120.000000	89.041	-142.7470
1138.000000	89.131	-142.1992
1150.000000	89.187	-141.8536
1172.000000	89.289	-141.2070
1180.000000	89.322	-140.9685
1206.000000	89.437	-140.2530
1220.000000	89.511	-139.8854
1241.000000	89.648	-139.3694
1250.000000	89.701	-139.1177
1265.000000	89.790	-138.7661
1280.000000	89.881	-138.3889
1315.000000	90.081	-137.5052
1320.000000	90.107	-137.3944
1340.000000	90.223	-136.9086
1360.000000	90.374	-136.4069
1380.000000	90.487	-135.9235
1400.000000	90.603	-135.4334
1430.000000	90.771	-134.6774
1450.000000	90.888	-134.1717
1475.000000	91.027	-133.5539
1500.000000	91.168	-132.9195
1525.000000	91.312	-132.2864
1550.000000	91.428	-131.6328
1575.000000	91.544	-131.0129
1600.000000	91.667	-130.3918
1625.000000	91.789	-129.7730
1650.000000	91.911	-129.1594
1675.000000	92.038	-128.5547
1700.000000	92.168	-127.9622
1725.000000	92.303	-127.3890
1750.000000	92.442	-126.8099
1775.000000	92.582	-126.2605
1800.000000	92.727	-125.7077
1825.000000	92.875	-125.2005
1850.000000	93.026	-124.7041
1875.000000	93.178	-124.2345
1900.000000	93.338	-123.7658
1925.000000	93.494	-123.3556
1950.000000	93.655	-122.9458
1975.000000	93.818	-122.5638
2000.000000	93.983	-122.2195
2030.000000	94.184	-121.8253
2060.000000	94.389	-121.5224
2090.000000	94.600	-121.2324
2120.000000	94.814	-121.0033
2140.000000	94.954	-120.8910
2180.000000	95.243	-120.7205
2200.000000	95.389	-120.6733
2240.000000	95.680	-120.6791
2270.000000	95.900	-120.7423
2300.000000	96.117	-120.8895
2330.000000	96.337	-121.0682
2360.000000	96.553	-121.2865
2400.000000	96.837	-121.6704
2430.000000	97.053	-121.9673
2470.000000	97.349	-122.3714
2500.000000	97.589	-122.7096
2540.000000	97.943	-123.3213
2580.000000	98.321	-124.3848
2620.000000	98.683	-125.9697
2650.000000	98.921	-127.3934
2690.000000	99.196	-129.5030
2720.000000	99.371	-131.1515
2760.000000	99.565	-133.4185
2800.000000	99.721	-135.7464
2850.000000	99.863	-138.6962
2900.000000	99.949	-141.6418
2950.000000	99.980	-144.5540
3000.000000	99.956	-147.3690
3040.000000	99.906	-149.5314
3070.000000	99.847	-151.0736
3110.000000	99.749	-153.0388
3150.000000	99.627	-154.8695
3200.000000	99.449	-156.9524
3250.000000	99.250	-158.8213
3300.000000	99.032	-160.4527
3350.000000	98.805	-161.8584
3400.000000	98.576	-163.0516
3450.000000	98.345	-164.0623
3500.000000	98.119	-164.8804
3550.000000	97.896	-165.5701
3600.000000	97.678	-166.1293
3650.000000	97.466	-166.5541
3700.000000	97.263	-166.8989
3750.000000	97.066	-167.1682
3820.000000	96.794	-167.4560
3870.000000	96.598	-167.5889
3950.000000	96.271	-167.5806
4000.000000	96.070	-167.3663
4060.000000	95.842	-166.9035
4120.000000	95.651	-166.2571
4180.000000	95.495	-165.5697
4250.000000	95.347	-164.8296
4310.000000	95.232	-164.2571
4370.000000	95.126	-163.7313
4440.000000	95.002	-163.0912
4500.000000	94.901	-162.4940
4550.000000	94.825	-161.9360
4620.000000	94.746	-161.0536
4680.000000	94.701	-160.3411
4750.000000	94.670	-159.6148
4820.000000	94.661	-158.9873
4870.000000	94.653	-158.6185
4940.000000	94.644	-158.2314
5000.000000	94.635	-157.9591
5080.000000	94.619	-157.7212
5150.000000	94.600	-157.6035
5220.000000	94.574	-157.5535
5300.000000	94.532	-157.6282
5380.000000	94.466	-157.7049
5450.000000	94.376	-157.7780
5520.000000	94.258	-157.7028
5600.000000	94.111	-157.3972
5700.000000	93.930	-156.6260
5800.000000	93.745	-155.1600
5900.000000	93.901	-151.8967
6000.000000	94.391	-153.0813
6080.000000	94.406	-154.7480
6150.000000	94.343	-155.7772
6220.000000	94.267	-156.5377
6300.000000	94.173	-157.3135
6400.000000	94.036	-158.1611
6500.000000	93.873	-158.9497
6600.000000	93.689	-159.5968
6700.000000	93.488	-160.1393
6800.000000	93.272	-160.5046
6900.000000	93.085	-160.6984
7000.000000	92.932	-160.7415
7100.000000	92.791	-160.6294
7200.000000	92.665	-160.3907
7300.000000	92.539	-160.0984
7400.000000	92.425	-159.5914
7500.000000	92.330	-159.0752
7620.000000	92.246	-158.2605
7750.000000	92.290	-157.3118
7880.000000	92.173	-156.3420
8000.000000	92.126	-155.4384
8120.000000	92.127	-154.6221
8250.000000	92.184	-153.7694
8380.000000	92.302	-153.1857
8500.000000	92.481	-152.8266
8620.000000	92.731	-152.8829
8750.000000	93.030	-153.4437
8850.000000	93.299	-154.3989
9000.000000	93.760	-156.8621
9120.000000	94.139	-159.8754
9250.000000	94.516	-164.2885
9380.000000	94.816	-169.9632
9500.000000	94.953	-176.2851
9620.000000	94.910	176.6562
9750.000000	94.592	168.6614
9880.000000	94.001	161.0421
10000.000000	93.262	154.9368
10150.000000	92.172	148.9333
10300.000000	91.029	144.7170
10440.000000	89.993	142.1923
10600.000000	88.906	140.5761
10750.000000	87.994	139.9112
10900.000000	87.180	139.6658
11060.000000	86.449	139.7723
11200.000000	85.882	140.1053
11380.000000	85.263	140.3835
11500.000000	84.898	140.5926
11720.000000	84.384	141.0715
11800.000000	84.196	141.1421
12060.000000	83.801	141.2229
12200.000000	83.657	140.7780
12410.000000	83.608	139.7773
12500.000000	83.569	139.2213
12650.000000	83.593	137.7275
12800.000000	83.626	136.1135
13150.000000	83.817	130.2927
13200.000000	83.843	129.2072
13400.000000	83.968	124.3069
13600.000000	84.032	118.1932
13800.000000	84.081	111.2624
14000.000000	84.030	103.3652
14300.000000	83.675	90.4392
14500.000000	83.264	81.6689
14750.000000	82.559	70.5929
15000.000000	81.805	59.8922
15250.000000	80.960	49.6100
15500.000000	80.132	39.3804
15750.000000	79.360	29.2356
16000.000000	78.678	18.5892
16250.000000	78.172	7.5692
16500.000000	77.871	-4.2961
16750.000000	77.783	-17.6240
17000.000000	77.943	-32.2484
17250.000000	78.401	-48.4758
17500.000000	79.089	-67.4227
17750.000000	80.284	-88.7767
18000.000000	81.976	-115.0935
18250.000000	84.152	-149.9263
18500.000000	85.923	160.4000
18750.000000	84.981	101.3290
19000.000000	81.941	51.2970
19250.000000	78.763	9.4779
19500.000000	75.891	-30.3683
19750.000000	72.986	-70.8821
