* Measurement data measured by REW V5.20.4
* Source: Headset (2- USB-C to 3.5mm Headphone Jack Adapter), MICROPHONE (Master Volume), R, volume: 0.260
* Format: 256k Log Swept Sine, 1 sweep at -6.0 dBFS with no timing reference
* Dated: 30 Mar, 2023 1:51:47 AM
* REW Settings:
*  C-weighting compensation: Off
*  Target level: 75.0 dB
* Note: 
* Measurement: TE HEXA L
* Smoothing: None
* Frequency Step: 1/48 octave
* Start Frequency: 20.000 Hz
*
* Freq(Hz)	SPL(dB)	Phase(degrees)
20.000000	103.406	-135.0498
20.299999	103.444	-136.1639
20.600000	103.477	-137.2079
20.900000	103.510	-138.1792
21.200001	103.549	-139.0959
21.400000	103.581	-139.6989
21.799999	103.653	-140.9282
22.000000	103.690	-141.5729
22.400000	103.761	-142.9390
22.700001	103.804	-144.0129
23.000000	103.836	-145.0951
23.299999	103.855	-146.1518
23.600000	103.866	-147.1614
24.000000	103.874	-148.4171
24.299999	103.878	-149.2946
24.700001	103.885	-150.3958
25.000000	103.892	-151.1838
25.400000	103.904	-152.1996
25.799999	103.919	-153.1914
26.200001	103.938	-154.1760
26.500000	103.953	-154.9175
26.900000	103.969	-155.9143
27.200001	103.977	-156.6666
27.600000	103.985	-157.6719
28.000000	103.989	-158.6746
28.500000	103.987	-159.9126
29.000000	103.976	-161.1033
29.500000	103.961	-162.2149
30.000000	103.951	-163.2576
30.400000	103.953	-164.0843
30.700001	103.955	-164.7215
31.100000	103.956	-165.5961
31.500000	103.950	-166.4729
32.000000	103.933	-167.5150
32.500000	103.917	-168.4814
33.000000	103.905	-169.4271
33.500000	103.887	-170.3952
34.000000	103.856	-171.3432
34.500000	103.821	-172.1867
35.000000	103.790	-172.9087
35.500000	103.774	-173.5887
36.000000	103.766	-174.3164
36.500000	103.756	-175.1084
37.000000	103.736	-175.9190
37.500000	103.707	-176.7051
38.200001	103.659	-177.7429
38.700001	103.618	-178.4325
39.500000	103.558	-179.4150
40.000000	103.533	-179.9789
40.599998	103.516	179.3116
41.200001	103.502	178.5070
41.799999	103.476	177.6541
42.500000	103.431	176.7269
43.099998	103.393	176.0205
43.700001	103.359	175.3401
44.400002	103.322	174.5257
45.000000	103.285	173.7930
45.500000	103.245	173.1721
46.200001	103.174	172.3860
46.799999	103.120	171.8344
47.500000	103.081	171.1198
48.200001	103.027	170.2124
48.700001	102.964	169.6387
49.400002	102.892	169.1063
50.000000	102.868	168.6151
50.799999	102.823	167.7354
51.500000	102.770	167.2083
52.200001	102.776	166.6752
53.000000	102.759	165.4164
53.799999	102.603	164.4453
54.500000	102.495	164.3979
55.200001	102.477	164.2139
56.000000	102.428	163.5290
57.000000	102.325	163.0121
58.000000	102.270	162.3582
59.000000	102.174	161.5600
60.000000	102.084	160.9025
60.799999	102.017	160.3202
61.500000	101.954	159.8676
62.200001	101.898	159.4544
63.000000	101.838	158.9743
64.000000	101.760	158.3972
65.000000	101.684	157.8570
66.000000	101.606	157.3298
67.000000	101.527	156.8219
68.000000	101.447	156.3311
69.000000	101.369	155.8489
70.000000	101.290	155.3661
71.000000	101.209	154.9250
72.000000	101.134	154.5025
73.000000	101.057	154.0653
74.000000	100.978	153.6720
75.000000	100.908	153.2869
76.199997	100.818	152.7383
77.500000	100.710	152.2870
78.800003	100.623	151.8179
80.000000	100.534	151.4014
81.199997	100.447	151.0000
82.500000	100.351	150.6512
83.800003	100.262	150.2737
85.000000	100.179	149.9332
86.199997	100.092	149.5707
87.500000	99.998	149.2300
88.500000	99.928	148.9674
90.000000	99.826	148.5874
91.199997	99.740	148.2865
92.500000	99.653	148.0079
93.800003	99.564	147.7058
95.000000	99.484	147.4775
96.199997	99.408	147.2235
97.500000	99.320	146.9942
98.800003	99.240	146.7753
100.000000	99.161	146.5590
101.500000	99.065	146.3370
103.000000	98.967	146.0892
104.400002	98.881	145.9333
106.000000	98.794	145.6195
107.500000	98.691	145.3802
109.000000	98.598	145.2055
110.599998	98.512	145.0016
112.000000	98.411	144.7570
113.800003	98.316	144.6469
115.000000	98.226	144.4878
117.199997	98.113	144.3427
118.000000	98.063	144.2804
120.599998	97.908	144.0676
122.000000	97.821	143.9713
124.099998	97.705	143.8425
125.000000	97.648	143.8305
126.500000	97.573	143.7381
128.000000	97.483	143.6388
131.500000	97.284	143.4712
132.000000	97.253	143.4957
134.000000	97.148	143.5041
136.000000	97.019	143.4976
138.000000	96.922	143.5309
140.000000	96.808	143.5240
143.000000	96.628	143.6133
145.000000	96.535	143.8436
147.500000	96.409	144.0930
150.000000	96.258	144.5338
152.500000	96.120	144.9059
155.000000	96.008	145.6160
157.500000	95.923	146.2820
160.000000	95.936	146.9010
162.500000	95.985	147.7695
165.000000	96.026	147.9965
167.500000	96.003	147.7021
170.000000	96.062	146.8754
172.500000	96.026	146.2485
175.000000	95.949	145.7594
177.500000	95.858	145.3132
180.000000	95.758	145.0237
182.500000	95.652	144.8144
185.000000	95.545	144.7900
187.500000	95.465	144.6429
190.000000	95.355	144.6463
192.500000	95.260	144.5765
195.000000	95.163	144.5698
197.500000	95.074	144.5093
200.000000	94.987	144.6465
203.000000	94.891	144.6817
206.000000	94.790	144.8205
209.000000	94.693	144.8976
212.000000	94.597	145.0309
214.000000	94.540	145.1243
218.000000	94.412	145.3134
220.000000	94.350	145.4500
224.000000	94.229	145.6622
227.000000	94.140	145.7922
230.000000	94.058	145.9867
233.000000	93.965	146.1476
236.000000	93.893	146.3459
240.000000	93.784	146.6183
243.000000	93.709	146.8233
247.000000	93.608	147.0733
250.000000	93.536	147.2416
254.000000	93.441	147.5620
258.000000	93.347	147.8663
262.000000	93.255	148.1556
265.000000	93.190	148.3858
269.000000	93.103	148.6714
272.000000	93.037	148.9006
276.000000	92.948	149.2059
280.000000	92.860	149.5549
285.000000	92.761	149.9184
290.000000	92.659	150.3140
295.000000	92.558	150.7306
300.000000	92.460	151.1567
304.000000	92.389	151.4669
307.000000	92.333	151.7370
311.000000	92.253	152.0694
315.000000	92.187	152.3814
320.000000	92.099	152.7979
325.000000	92.013	153.2378
330.000000	91.926	153.6673
335.000000	91.842	154.0681
340.000000	91.763	154.4844
345.000000	91.693	154.9645
350.000000	91.621	155.4033
355.000000	91.540	155.8266
360.000000	91.469	156.2523
365.000000	91.406	156.6934
370.000000	91.339	157.1369
375.000000	91.275	157.5709
382.000000	91.186	158.2008
387.000000	91.122	158.6154
395.000000	91.022	159.3386
400.000000	90.967	159.7833
406.000000	90.892	160.3099
412.000000	90.829	160.8210
418.000000	90.762	161.3490
425.000000	90.685	162.0276
431.000000	90.619	162.5567
437.000000	90.563	163.0781
444.000000	90.486	163.6816
450.000000	90.434	164.1879
455.000000	90.381	164.6846
462.000000	90.318	165.3091
468.000000	90.260	165.8262
475.000000	90.199	166.4605
482.000000	90.135	167.0741
487.000000	90.101	167.5509
494.000000	90.045	168.1770
500.000000	90.004	168.6935
508.000000	89.941	169.4083
515.000000	89.895	170.0308
522.000000	89.844	170.6600
530.000000	89.788	171.3776
538.000000	89.740	172.0928
545.000000	89.697	172.7256
552.000000	89.651	173.3429
560.000000	89.602	174.0698
570.000000	89.546	174.9865
580.000000	89.490	175.8894
590.000000	89.442	176.8015
600.000000	89.385	177.7093
608.000000	89.345	178.4630
615.000000	89.311	179.1177
622.000000	89.276	179.7617
630.000000	89.242	-179.4522
640.000000	89.183	-178.5361
650.000000	89.132	-177.5358
660.000000	89.083	-176.5163
670.000000	89.044	-175.4824
680.000000	89.002	-174.3000
690.000000	88.963	-173.1648
700.000000	88.942	-171.8963
710.000000	88.935	-170.5754
720.000000	88.970	-169.1541
730.000000	89.035	-167.9940
740.000000	89.112	-167.0145
750.000000	89.175	-166.3219
762.000000	89.231	-165.6089
775.000000	89.242	-164.7670
788.000000	89.245	-163.7034
800.000000	89.271	-162.6703
812.000000	89.304	-161.7868
825.000000	89.344	-160.7950
838.000000	89.383	-159.7521
850.000000	89.439	-158.9301
862.000000	89.476	-157.9941
875.000000	89.521	-157.0587
885.000000	89.557	-156.4530
900.000000	89.628	-155.3439
912.000000	89.695	-154.5763
925.000000	89.757	-153.7589
938.000000	89.815	-153.0038
950.000000	89.876	-152.2186
962.000000	89.959	-151.4878
975.000000	90.026	-150.8307
988.000000	90.116	-150.1287
1000.000000	90.201	-149.5097
1015.000000	90.300	-148.8069
1030.000000	90.401	-148.1088
1044.000000	90.493	-147.5954
1060.000000	90.596	-146.9597
1075.000000	90.696	-146.4432
1090.000000	90.780	-145.9459
1106.000000	90.857	-145.4323
1120.000000	90.931	-145.0505
1138.000000	91.025	-144.6007
1150.000000	91.077	-144.2852
1172.000000	91.180	-143.7485
1180.000000	91.206	-143.5974
1206.000000	91.316	-143.0595
1220.000000	91.389	-142.7696
1241.000000	91.515	-142.3083
1250.000000	91.564	-142.1684
1265.000000	91.650	-141.8952
1280.000000	91.734	-141.5808
1315.000000	91.906	-140.9208
1320.000000	91.936	-140.8368
1340.000000	92.038	-140.4314
1360.000000	92.183	-140.0149
1380.000000	92.283	-139.6473
1400.000000	92.383	-139.2481
1430.000000	92.531	-138.6198
1450.000000	92.628	-138.2097
1475.000000	92.752	-137.6732
1500.000000	92.875	-137.1272
1525.000000	92.995	-136.5977
1550.000000	93.095	-136.0713
1575.000000	93.194	-135.4982
1600.000000	93.293	-134.9331
1625.000000	93.393	-134.4104
1650.000000	93.503	-133.8526
1675.000000	93.602	-133.3174
1700.000000	93.712	-132.7822
1725.000000	93.821	-132.2548
1750.000000	93.935	-131.7686
1775.000000	94.054	-131.2337
1800.000000	94.172	-130.7453
1825.000000	94.297	-130.2532
1850.000000	94.424	-129.8035
1875.000000	94.546	-129.3425
1900.000000	94.680	-128.9387
1925.000000	94.815	-128.4916
1950.000000	94.949	-128.1176
1975.000000	95.080	-127.7249
2000.000000	95.218	-127.3800
2030.000000	95.389	-126.9359
2060.000000	95.562	-126.6010
2090.000000	95.734	-126.2669
2120.000000	95.910	-125.9796
2140.000000	96.034	-125.8174
2180.000000	96.277	-125.5255
2200.000000	96.403	-125.4337
2240.000000	96.649	-125.2597
2270.000000	96.838	-125.2383
2300.000000	97.031	-125.2006
2330.000000	97.220	-125.2526
2360.000000	97.409	-125.3304
2400.000000	97.664	-125.5319
2430.000000	97.857	-125.7490
2470.000000	98.112	-126.1117
2500.000000	98.302	-126.4130
2540.000000	98.552	-126.9400
2580.000000	98.807	-127.4724
2620.000000	99.067	-128.1250
2650.000000	99.267	-128.6944
2690.000000	99.541	-129.6000
2720.000000	99.749	-130.4151
2760.000000	100.014	-131.7576
2800.000000	100.261	-133.3460
2850.000000	100.524	-135.5661
2900.000000	100.734	-137.9646
2950.000000	100.894	-140.4885
3000.000000	101.006	-143.0385
3040.000000	101.060	-145.0686
3070.000000	101.081	-146.6104
3110.000000	101.085	-148.6112
3150.000000	101.062	-150.5685
3200.000000	101.000	-152.9295
3250.000000	100.902	-155.1493
3300.000000	100.778	-157.2422
3350.000000	100.625	-159.1762
3400.000000	100.449	-160.9221
3450.000000	100.258	-162.5294
3500.000000	100.051	-163.9450
3550.000000	99.834	-165.1735
3600.000000	99.609	-166.2577
3650.000000	99.375	-167.1452
3700.000000	99.142	-167.8826
3750.000000	98.910	-168.4385
3820.000000	98.593	-168.9443
3870.000000	98.380	-169.1649
3950.000000	98.051	-169.3030
4000.000000	97.860	-169.3153
4060.000000	97.638	-169.2250
4120.000000	97.430	-169.0482
4180.000000	97.236	-168.8208
4250.000000	97.014	-168.5072
4310.000000	96.834	-168.1839
4370.000000	96.665	-167.8070
4440.000000	96.478	-167.3181
4500.000000	96.321	-166.8774
4550.000000	96.203	-166.4522
4620.000000	96.032	-165.8520
4680.000000	95.901	-165.2608
4750.000000	95.747	-164.6386
4820.000000	95.600	-163.9383
4870.000000	95.493	-163.3848
4940.000000	95.351	-162.6272
5000.000000	95.235	-161.9333
5080.000000	95.096	-160.9055
5150.000000	94.980	-160.0022
5220.000000	94.876	-159.1308
5300.000000	94.764	-158.1255
5380.000000	94.658	-157.0693
5450.000000	94.578	-156.2080
5520.000000	94.469	-155.2711
5600.000000	94.355	-154.2010
5700.000000	94.210	-152.7475
5800.000000	94.056	-150.9575
5900.000000	93.911	-147.9700
6000.000000	94.336	-144.5251
6080.000000	94.609	-145.3788
6150.000000	94.618	-145.7351
6220.000000	94.612	-145.6627
6300.000000	94.603	-145.3584
6400.000000	94.628	-144.8719
6500.000000	94.672	-144.4740
6600.000000	94.723	-144.1576
6700.000000	94.787	-143.9962
6800.000000	94.858	-143.9440
6900.000000	94.961	-144.1034
7000.000000	95.107	-144.3404
7100.000000	95.257	-144.7433
7200.000000	95.397	-145.3832
7300.000000	95.534	-146.0979
7400.000000	95.661	-147.0552
7500.000000	95.766	-148.0482
7620.000000	95.885	-149.4550
7750.000000	96.077	-151.2164
7880.000000	96.054	-153.1184
8000.000000	96.006	-154.9673
8120.000000	95.960	-156.8230
8250.000000	95.882	-158.9740
8380.000000	95.814	-161.2520
8500.000000	95.748	-163.5480
8620.000000	95.665	-166.0077
8750.000000	95.524	-168.9290
8850.000000	95.392	-171.2589
9000.000000	95.163	-174.9942
9120.000000	94.935	-178.0930
9250.000000	94.660	178.4235
9380.000000	94.324	174.9864
9500.000000	93.981	171.8909
9620.000000	93.601	168.8564
9750.000000	93.146	165.8325
9880.000000	92.688	163.1512
10000.000000	92.251	160.8295
10150.000000	91.698	158.2936
10300.000000	91.153	156.0519
10440.000000	90.628	154.2506
10600.000000	90.063	152.4624
10750.000000	89.553	151.2265
10900.000000	89.048	150.2089
11060.000000	88.561	149.3060
11200.000000	88.171	148.9083
11380.000000	87.722	148.4211
11500.000000	87.451	148.3417
11720.000000	87.038	148.2633
11800.000000	86.936	148.1062
12060.000000	86.662	147.7641
12200.000000	86.555	147.4691
12410.000000	86.571	146.2445
12500.000000	86.601	145.4724
12650.000000	86.673	143.7450
12800.000000	86.736	141.5419
13150.000000	86.797	134.2502
13200.000000	86.766	132.9786
13400.000000	86.657	127.6259
13600.000000	86.433	121.5204
13800.000000	86.130	115.0615
14000.000000	85.696	108.3725
14300.000000	84.891	98.5574
14500.000000	84.230	92.2627
14750.000000	83.404	84.4022
15000.000000	82.595	76.6075
15250.000000	81.849	68.4555
15500.000000	81.208	59.8764
15750.000000	80.691	49.9228
16000.000000	80.336	38.5752
16250.000000	80.190	26.0687
16500.000000	80.335	12.0269
16750.000000	80.903	-4.0569
17000.000000	81.918	-22.3320
17250.000000	83.383	-43.2788
17500.000000	85.394	-68.2184
17750.000000	87.976	-100.7752
18000.000000	90.148	-147.3893
18250.000000	89.659	157.5770
18500.000000	87.002	113.0424
18750.000000	84.253	78.1115
19000.000000	82.005	46.3176
19250.000000	80.013	14.7296
19500.000000	78.107	-18.5498
19750.000000	76.073	-54.7471
