* Measurement data measured by REW V5.20.4
* Source: Microphone (2- KM-HIFI-384KHZ), MICROPHONE (Master Volume), L, volume: 0.250
* Format: 256k Log Swept Sine, 1 sweep at -6.0 dBFS with no timing reference
* Dated: 12 Apr, 2022 3:42:33 PM
* REW Settings:
*  C-weighting compensation: Off
*  Target level: 75.0 dB
* Note: 
* Measurement: Midnight L
* Smoothing: None
* Frequency Step: 1/48 octave
* Start Frequency: 20.300 Hz
*
* Freq(Hz)	SPL(dB)	Phase(degrees)
20.299999	99.020	134.2581
20.600000	98.987	133.6966
20.900000	98.944	133.1829
21.200001	98.897	132.6698
21.400000	98.865	132.3380
21.799999	98.803	131.7093
22.000000	98.774	131.4081
22.400000	98.723	130.8023
22.700001	98.690	130.3371
23.000000	98.657	129.8479
23.299999	98.621	129.3336
23.600000	98.581	128.8192
24.000000	98.522	128.1707
24.299999	98.477	127.7291
24.700001	98.421	127.2004
25.000000	98.386	126.8231
25.400000	98.347	126.2908
25.799999	98.310	125.6996
26.200001	98.265	125.0554
26.500000	98.224	124.5692
26.900000	98.159	123.9700
27.200001	98.106	123.5703
27.600000	98.041	123.0944
28.000000	97.986	122.6456
28.500000	97.928	122.0383
29.000000	97.868	121.3571
29.500000	97.795	120.6445
30.000000	97.713	119.9870
30.400000	97.650	119.5143
30.700001	97.606	119.1850
31.100000	97.556	118.7483
31.500000	97.510	118.2873
32.000000	97.454	117.6751
32.500000	97.392	117.0537
33.000000	97.325	116.4739
33.500000	97.257	115.9366
34.000000	97.195	115.4122
34.500000	97.143	114.8526
35.000000	97.088	114.2539
35.500000	97.027	113.6374
36.000000	96.959	113.0454
36.500000	96.888	112.4986
37.000000	96.820	112.0000
37.500000	96.760	111.5215
38.200001	96.688	110.8377
38.700001	96.635	110.3153
39.500000	96.541	109.4423
40.000000	96.473	108.9017
40.599998	96.387	108.2768
41.200001	96.306	107.6826
41.799999	96.232	107.1201
42.500000	96.155	106.5366
43.099998	96.096	106.1095
43.700001	96.040	105.6749
44.400002	95.967	105.0624
45.000000	95.892	104.4767
45.500000	95.829	103.9957
46.200001	95.755	103.3195
46.799999	95.695	102.7117
47.500000	95.609	102.0742
48.200001	95.519	101.5488
48.700001	95.458	101.1489
49.400002	95.368	100.5256
50.000000	95.292	100.0688
50.799999	95.224	99.5719
51.500000	95.177	99.0517
52.200001	95.107	98.5756
53.000000	95.034	98.2301
53.799999	94.989	97.7037
54.500000	94.919	97.0478
55.200001	94.829	96.5359
56.000000	94.762	96.0512
57.000000	94.694	95.1307
58.000000	94.582	94.3661
59.000000	94.513	93.7656
60.000000	94.440	92.7660
60.799999	94.345	92.1590
61.500000	94.282	91.9041
62.200001	94.250	91.5165
63.000000	94.189	90.7478
64.000000	94.073	89.9641
65.000000	94.014	89.4531
66.000000	93.951	88.8227
67.000000	93.871	88.3463
68.000000	93.804	87.6359
69.000000	93.690	86.9112
70.000000	93.609	86.5223
71.000000	93.571	85.8622
72.000000	93.490	85.2020
73.000000	93.411	84.7422
74.000000	93.345	84.1470
75.000000	93.278	83.4869
76.199997	93.191	82.8678
77.500000	93.096	82.3204
78.800003	93.022	81.5527
80.000000	92.950	80.8790
81.199997	92.881	80.3332
82.500000	92.801	79.6192
83.800003	92.724	78.9389
85.000000	92.649	78.4427
86.199997	92.589	77.9398
87.500000	92.516	77.1912
88.500000	92.454	76.7709
90.000000	92.379	76.1026
91.199997	92.313	75.5447
92.500000	92.248	74.9576
93.800003	92.184	74.4320
95.000000	92.128	73.9477
96.199997	92.071	73.4661
97.500000	92.007	72.8716
98.800003	91.947	72.3489
100.000000	91.898	71.8785
101.500000	91.825	71.3286
103.000000	91.758	70.7317
104.400002	91.703	70.2240
106.000000	91.631	69.5815
107.500000	91.571	69.0070
109.000000	91.516	68.4733
110.599998	91.453	67.8810
112.000000	91.403	67.4083
113.800003	91.330	66.7946
115.000000	91.288	66.3825
117.199997	91.207	65.6481
118.000000	91.177	65.3847
120.599998	91.082	64.5680
122.000000	91.044	64.1509
124.099998	90.984	63.5022
125.000000	90.963	63.1587
126.500000	90.902	62.7108
128.000000	90.870	62.2874
131.500000	90.775	61.3240
132.000000	90.764	61.2164
134.000000	90.699	60.5462
136.000000	90.647	60.0884
138.000000	90.598	59.4983
140.000000	90.547	58.9853
143.000000	90.476	58.2272
145.000000	90.428	57.7365
147.500000	90.376	57.1260
150.000000	90.321	56.5756
152.500000	90.265	56.0052
155.000000	90.205	55.4340
157.500000	90.155	54.9123
160.000000	90.095	54.3445
162.500000	90.045	53.8481
165.000000	89.999	53.2957
167.500000	89.948	52.8534
170.000000	89.902	52.3933
172.500000	89.856	51.8414
175.000000	89.819	51.4914
177.500000	89.793	50.9728
180.000000	89.740	50.5784
182.500000	89.719	50.1863
185.000000	89.677	49.6977
187.500000	89.647	49.3587
190.000000	89.612	48.9499
192.500000	89.591	48.5190
195.000000	89.558	48.1709
197.500000	89.535	47.8056
200.000000	89.513	47.4679
203.000000	89.481	47.0239
206.000000	89.454	46.6413
209.000000	89.430	46.1848
212.000000	89.399	45.8239
214.000000	89.385	45.6260
218.000000	89.347	45.1135
220.000000	89.326	44.8627
224.000000	89.289	44.4301
227.000000	89.261	44.1080
230.000000	89.240	43.7886
233.000000	89.214	43.3997
236.000000	89.189	43.1372
240.000000	89.161	42.7501
243.000000	89.136	42.4655
247.000000	89.116	42.1705
250.000000	89.100	41.8074
254.000000	89.065	41.5206
258.000000	89.053	41.1706
262.000000	89.021	40.8738
265.000000	89.030	40.6355
269.000000	89.019	40.2160
272.000000	88.950	39.9524
276.000000	88.933	39.8156
280.000000	88.920	39.5166
285.000000	88.890	39.2944
290.000000	88.849	38.7635
295.000000	88.848	38.7165
300.000000	88.814	38.4143
304.000000	88.804	38.2607
307.000000	88.794	38.1353
311.000000	88.773	38.0312
315.000000	88.753	37.7392
320.000000	88.731	37.5452
325.000000	88.709	37.4523
330.000000	88.693	37.2905
335.000000	88.678	37.0435
340.000000	88.657	37.0020
345.000000	88.644	36.8777
350.000000	88.639	36.9007
355.000000	88.635	36.7847
360.000000	88.653	36.7453
365.000000	88.651	36.7592
370.000000	88.656	36.5755
375.000000	88.660	36.3480
382.000000	88.674	36.0687
387.000000	88.679	35.8234
395.000000	88.681	35.4348
400.000000	88.667	35.1715
406.000000	88.637	34.8563
412.000000	88.615	34.7397
418.000000	88.559	34.5693
425.000000	88.528	34.4888
431.000000	88.555	34.5840
437.000000	88.462	34.3931
444.000000	88.479	35.1779
450.000000	88.453	34.7567
455.000000	88.463	34.3046
462.000000	88.412	34.3654
468.000000	88.405	34.3024
475.000000	88.384	34.1180
482.000000	88.348	34.4410
487.000000	88.290	34.2827
494.000000	88.341	34.5018
500.000000	88.271	34.4608
508.000000	88.272	34.5428
515.000000	88.222	34.6582
522.000000	88.226	34.7481
530.000000	88.171	35.0759
538.000000	88.148	35.0708
545.000000	88.120	35.2149
552.000000	88.098	35.3776
560.000000	88.100	36.0439
570.000000	88.080	36.0233
580.000000	88.168	35.9130
590.000000	88.134	37.2142
600.000000	88.183	37.7259
608.000000	88.037	37.1701
615.000000	88.086	37.9137
622.000000	88.140	38.0440
630.000000	88.123	38.6207
640.000000	88.105	38.8406
650.000000	88.141	39.2006
660.000000	88.124	40.1498
670.000000	88.224	40.8417
680.000000	88.134	40.6995
690.000000	88.170	40.9572
700.000000	88.185	41.4227
710.000000	88.189	41.7054
720.000000	88.183	42.1391
730.000000	88.226	42.7649
740.000000	88.243	43.0219
750.000000	88.272	43.4181
762.000000	88.289	43.9267
775.000000	88.309	44.9188
788.000000	88.352	45.6424
800.000000	88.403	46.7497
812.000000	88.454	46.3307
825.000000	88.502	47.2531
838.000000	88.525	47.4466
850.000000	88.590	47.9581
862.000000	88.674	48.6225
875.000000	88.720	49.2098
885.000000	88.783	49.6602
900.000000	88.869	50.1031
912.000000	88.934	50.4862
925.000000	89.020	50.9405
938.000000	89.113	51.3205
950.000000	89.173	51.7614
962.000000	89.237	52.0899
975.000000	89.324	52.4027
988.000000	89.409	52.7872
1000.000000	89.498	53.0602
1015.000000	89.586	53.3380
1030.000000	89.696	53.6659
1044.000000	89.797	53.9118
1060.000000	89.913	54.1598
1075.000000	90.017	54.3279
1090.000000	90.103	54.4729
1106.000000	90.183	54.6615
1120.000000	90.262	54.7373
1138.000000	90.347	54.8554
1150.000000	90.408	54.8618
1172.000000	90.503	54.9711
1180.000000	90.540	54.9749
1206.000000	90.645	55.0055
1220.000000	90.729	55.0760
1241.000000	90.849	55.0501
1250.000000	90.909	55.0395
1265.000000	90.994	55.0748
1280.000000	91.075	55.0922
1315.000000	91.258	55.1370
1320.000000	91.284	55.1166
1340.000000	91.384	55.1834
1360.000000	91.520	55.1986
1380.000000	91.623	55.2569
1400.000000	91.723	55.3043
1430.000000	91.860	55.4093
1450.000000	91.955	55.4908
1475.000000	92.064	55.6201
1500.000000	92.178	55.7110
1525.000000	92.296	55.8820
1550.000000	92.379	55.9910
1575.000000	92.465	56.1303
1600.000000	92.547	56.2887
1625.000000	92.631	56.4443
1650.000000	92.719	56.5975
1675.000000	92.803	56.7436
1700.000000	92.892	56.8992
1725.000000	92.980	57.0460
1750.000000	93.073	57.1802
1775.000000	93.166	57.3007
1800.000000	93.258	57.4082
1825.000000	93.352	57.4889
1850.000000	93.445	57.5418
1875.000000	93.542	57.6280
1900.000000	93.632	57.6136
1925.000000	93.721	57.6587
1950.000000	93.799	57.6714
1975.000000	93.879	57.7540
2000.000000	93.962	57.8892
2030.000000	94.081	58.0449
2060.000000	94.211	58.1031
2090.000000	94.348	58.0565
2120.000000	94.480	57.9279
2140.000000	94.569	57.8264
2180.000000	94.740	57.5366
2200.000000	94.822	57.3513
2240.000000	94.982	56.9236
2270.000000	95.100	56.5509
2300.000000	95.209	56.1271
2330.000000	95.323	55.6658
2360.000000	95.424	55.1648
2400.000000	95.549	54.4335
2430.000000	95.642	53.8253
2470.000000	95.755	52.9610
2500.000000	95.832	52.2952
2540.000000	95.918	51.3329
2580.000000	95.991	50.3357
2620.000000	96.045	49.2954
2650.000000	96.075	48.5322
2690.000000	96.109	47.5006
2720.000000	96.121	46.7223
2760.000000	96.134	45.6978
2800.000000	96.136	44.6280
2850.000000	96.109	43.3043
2900.000000	96.060	42.0151
2950.000000	95.987	40.7928
3000.000000	95.893	39.6750
3040.000000	95.812	38.8425
3070.000000	95.739	38.2682
3110.000000	95.643	37.5328
3150.000000	95.536	36.8876
3200.000000	95.392	36.1616
3250.000000	95.246	35.5353
3300.000000	95.094	35.0404
3350.000000	94.945	34.6749
3400.000000	94.792	34.4046
3450.000000	94.647	34.2479
3500.000000	94.504	34.1865
3550.000000	94.379	34.1830
3600.000000	94.253	34.2616
3650.000000	94.132	34.3943
3700.000000	94.021	34.5789
3750.000000	93.926	34.7810
3820.000000	93.778	35.0639
3870.000000	93.687	35.4269
3950.000000	93.578	36.0719
4000.000000	93.531	36.4395
4060.000000	93.494	36.8073
4120.000000	93.474	37.0944
4180.000000	93.459	37.2700
4250.000000	93.463	37.2708
4310.000000	93.474	37.0368
4370.000000	93.486	36.5486
4440.000000	93.484	35.6028
4500.000000	93.437	34.3628
4550.000000	93.343	33.0363
4620.000000	93.072	31.0994
4680.000000	92.698	29.7352
4750.000000	92.146	29.2042
4820.000000	91.586	30.0624
4870.000000	91.244	31.2794
4940.000000	90.864	33.4412
5000.000000	90.616	35.3499
5080.000000	90.373	37.7018
5150.000000	90.191	39.6110
5220.000000	90.031	41.4186
5300.000000	89.859	43.3231
5380.000000	89.687	45.1916
5450.000000	89.541	46.7978
5520.000000	89.366	48.4656
5600.000000	89.172	50.4619
5700.000000	88.927	53.2258
5800.000000	88.727	56.3535
5900.000000	88.573	59.5726
6000.000000	88.452	63.0233
6080.000000	88.412	65.9384
6150.000000	88.391	68.5025
6220.000000	88.435	70.9767
6300.000000	88.529	73.8871
6400.000000	88.697	77.2158
6500.000000	88.906	80.2861
6600.000000	89.141	83.2041
6700.000000	89.425	86.1319
6800.000000	89.774	88.9153
6900.000000	90.238	91.4784
7000.000000	90.828	93.7432
7100.000000	91.478	95.5533
7200.000000	92.207	96.7593
7300.000000	92.985	97.2937
7400.000000	93.784	97.2523
7500.000000	94.652	96.6275
7620.000000	95.793	94.7471
7750.000000	97.248	90.5027
7880.000000	98.513	82.7578
8000.000000	99.389	71.9173
8120.000000	99.607	58.4691
8250.000000	98.940	44.6213
8380.000000	97.667	34.6675
8500.000000	96.345	29.2471
8620.000000	95.098	26.6167
8750.000000	93.885	25.7021
8850.000000	93.075	25.9381
9000.000000	92.050	27.2838
9120.000000	91.366	28.8657
9250.000000	90.767	30.8075
9380.000000	90.272	32.7668
9500.000000	89.910	34.4947
9620.000000	89.620	36.1761
9750.000000	89.360	37.4305
9880.000000	89.116	38.2588
10000.000000	88.883	38.6980
10150.000000	88.503	38.7417
10300.000000	88.019	38.6526
10440.000000	87.372	38.6862
10600.000000	86.562	39.9182
10750.000000	85.698	42.1473
10900.000000	84.844	45.7042
11060.000000	83.927	51.4705
11200.000000	83.380	58.8766
11380.000000	83.679	67.6234
11500.000000	83.820	68.8832
11720.000000	83.443	71.9082
11800.000000	83.289	73.5501
12060.000000	82.892	79.9311
12200.000000	82.757	83.1557
12410.000000	82.760	88.1066
12500.000000	82.746	90.0959
12650.000000	82.780	93.3064
12800.000000	82.816	96.3951
13150.000000	83.015	103.8321
13200.000000	83.063	104.9410
13400.000000	83.317	109.7334
13600.000000	83.771	114.1777
13800.000000	84.532	118.0747
14000.000000	85.511	120.2385
14300.000000	87.017	117.9242
14500.000000	87.538	112.9230
14750.000000	87.399	106.7625
15000.000000	86.744	103.9886
15250.000000	86.073	103.8185
15500.000000	85.229	102.8562
15750.000000	83.720	103.8729
16000.000000	82.142	110.9667
16250.000000	81.033	121.3182
16500.000000	80.361	132.7144
16750.000000	80.117	144.1097
17000.000000	80.170	154.8017
17250.000000	80.474	164.8969
17500.000000	81.015	173.9362
17750.000000	82.021	-178.2468
18000.000000	83.507	-172.9118
18250.000000	85.460	-171.4506
18500.000000	87.752	-177.0339
18750.000000	89.622	168.2977
19000.000000	90.052	148.8720
19250.000000	89.313	133.2226
19500.000000	88.411	121.4253
19750.000000	87.303	109.6307
