* Measurement data measured by REW V5.20.4
* Source: Microphone (2- KM-HIFI-384KHZ), MICROPHONE (Master Volume), R, volume: 0.250
* Format: 256k Log Swept Sine, 1 sweep at -6.0 dBFS with no timing reference
* Dated: 9 Feb, 2022 3:08:54 PM
* REW Settings:
*  C-weighting compensation: Off
*  Target level: 75.0 dB
* Note: 
* Measurement: Monarch Mk1 R
* Smoothing: None
* Frequency Step: 1/48 octave
* Start Frequency: 20.000 Hz
*
* Freq(Hz)	SPL(dB)	Phase(degrees)
20.000000	97.287	-24.5139
20.299999	97.262	-24.8442
20.600000	97.234	-25.1600
20.900000	97.204	-25.4478
21.200001	97.176	-25.7220
21.400000	97.159	-25.9023
21.799999	97.126	-26.2649
22.000000	97.109	-26.4530
22.400000	97.070	-26.8515
22.700001	97.037	-27.1417
23.000000	97.001	-27.4105
23.299999	96.964	-27.6635
23.600000	96.929	-27.9036
24.000000	96.887	-28.2277
24.299999	96.857	-28.4958
24.700001	96.815	-28.8871
25.000000	96.778	-29.1917
25.400000	96.724	-29.5892
25.799999	96.667	-29.9349
26.200001	96.613	-30.2262
26.500000	96.579	-30.4249
26.900000	96.543	-30.6914
27.200001	96.519	-30.9267
27.600000	96.492	-31.3121
28.000000	96.459	-31.7588
28.500000	96.402	-32.3187
29.000000	96.337	-32.7549
29.500000	96.285	-33.0740
30.000000	96.254	-33.4114
30.400000	96.236	-33.7865
30.700001	96.215	-34.1176
31.100000	96.170	-34.5529
31.500000	96.111	-34.8974
32.000000	96.038	-35.1425
32.500000	95.987	-35.2957
33.000000	95.954	-35.5361
33.500000	95.911	-35.9168
34.000000	95.848	-36.3178
34.500000	95.779	-36.6253
35.000000	95.716	-36.8477
35.500000	95.665	-37.0972
36.000000	95.612	-37.4183
36.500000	95.547	-37.7452
37.000000	95.479	-37.9856
37.500000	95.424	-38.1688
38.200001	95.369	-38.5417
38.700001	95.319	-38.9477
39.500000	95.205	-39.5589
40.000000	95.131	-39.8184
40.599998	95.056	-40.0965
41.200001	94.986	-40.4330
41.799999	94.909	-40.7984
42.500000	94.811	-41.1771
43.099998	94.728	-41.4206
43.700001	94.657	-41.6008
44.400002	94.599	-41.8844
45.000000	94.545	-42.3037
45.500000	94.477	-42.6787
46.200001	94.362	-42.9948
46.799999	94.280	-43.0889
47.500000	94.207	-43.2316
48.200001	94.139	-43.4374
48.700001	94.094	-43.6176
49.400002	94.028	-44.0170
50.000000	93.941	-44.4295
50.799999	93.795	-44.7221
51.500000	93.696	-44.8069
52.200001	93.614	-45.0418
53.000000	93.496	-45.3560
53.799999	93.384	-45.4824
54.500000	93.313	-45.6400
55.200001	93.240	-45.9485
56.000000	93.135	-46.3064
57.000000	92.997	-46.6031
58.000000	92.858	-46.8097
59.000000	92.724	-46.8322
60.000000	92.623	-46.9295
60.799999	92.534	-47.2335
61.500000	92.431	-47.5026
62.200001	92.314	-47.6604
63.000000	92.188	-47.6741
64.000000	92.074	-47.6564
65.000000	91.966	-47.9124
66.000000	91.834	-48.0150
67.000000	91.737	-48.1315
68.000000	91.602	-48.3200
69.000000	91.484	-48.2199
70.000000	91.371	-48.3824
71.000000	91.216	-48.3233
72.000000	91.102	-48.1822
73.000000	90.976	-48.1764
74.000000	90.863	-48.1450
75.000000	90.729	-48.2524
76.199997	90.578	-48.1005
77.500000	90.419	-48.0924
78.800003	90.285	-47.9038
80.000000	90.141	-47.8967
81.199997	90.011	-47.7160
82.500000	89.856	-47.5196
83.800003	89.724	-47.2894
85.000000	89.591	-47.0266
86.199997	89.467	-46.8368
87.500000	89.321	-46.5891
88.500000	89.199	-46.4018
90.000000	89.047	-45.9158
91.199997	88.927	-45.6904
92.500000	88.814	-45.4640
93.800003	88.665	-45.0781
95.000000	88.589	-44.7540
96.199997	88.431	-44.3370
97.500000	88.404	-43.5770
98.800003	88.255	-43.7585
100.000000	88.130	-42.9575
101.500000	87.999	-42.7394
103.000000	87.870	-42.0559
104.400002	87.764	-41.8344
106.000000	87.608	-41.2299
107.500000	87.521	-40.7552
109.000000	87.391	-40.1036
110.599998	87.302	-39.5479
112.000000	87.181	-39.0176
113.800003	87.084	-38.2080
115.000000	87.008	-37.7419
117.199997	86.881	-37.0611
118.000000	86.827	-36.6700
120.599998	86.704	-35.5031
122.000000	86.563	-34.7678
124.099998	86.504	-34.1961
125.000000	86.419	-33.6243
126.500000	86.373	-33.0227
128.000000	86.298	-32.2237
131.500000	86.220	-31.2113
132.000000	86.176	-31.0222
134.000000	86.098	-30.1367
136.000000	86.018	-28.7704
138.000000	85.975	-28.1360
140.000000	85.882	-27.3536
143.000000	85.798	-26.0916
145.000000	85.765	-25.7290
147.500000	85.698	-24.5439
150.000000	85.667	-23.4924
152.500000	85.639	-22.6360
155.000000	85.571	-21.4741
157.500000	85.536	-20.4602
160.000000	85.533	-19.6739
162.500000	85.464	-18.3920
165.000000	85.495	-17.5530
167.500000	85.483	-16.9154
170.000000	85.514	-16.3276
172.500000	85.560	-15.1720
175.000000	85.599	-14.6348
177.500000	85.550	-14.1571
180.000000	85.583	-13.3386
182.500000	85.632	-12.8139
185.000000	85.647	-12.2546
187.500000	85.719	-11.9481
190.000000	85.714	-11.6116
192.500000	85.772	-11.0630
195.000000	85.794	-10.5771
197.500000	85.808	-10.2331
200.000000	85.767	-9.7633
203.000000	85.809	-9.5098
206.000000	85.828	-9.0777
209.000000	85.871	-8.4945
212.000000	85.865	-8.1154
214.000000	85.842	-7.6166
218.000000	85.878	-7.3348
220.000000	85.868	-7.0664
224.000000	85.883	-6.5560
227.000000	85.870	-6.1092
230.000000	85.872	-5.7483
233.000000	85.895	-5.5013
236.000000	85.912	-5.0833
240.000000	85.925	-4.6946
243.000000	85.969	-4.3902
247.000000	85.941	-3.8836
250.000000	85.949	-3.2443
254.000000	85.939	-2.9290
258.000000	85.951	-2.5924
262.000000	85.983	-1.9100
265.000000	86.008	-1.5858
269.000000	86.025	-1.1860
272.000000	86.038	-0.8251
276.000000	86.071	-0.4656
280.000000	86.103	-0.0222
285.000000	86.120	0.4184
290.000000	86.166	0.7130
295.000000	86.174	1.0569
300.000000	86.207	1.1841
304.000000	86.223	1.4817
307.000000	86.211	1.6494
311.000000	86.199	1.8361
315.000000	86.203	2.1588
320.000000	86.215	2.4539
325.000000	86.229	2.9669
330.000000	86.217	3.0656
335.000000	86.207	3.5041
340.000000	86.194	3.8136
345.000000	86.215	4.1616
350.000000	86.221	4.5757
355.000000	86.229	4.8266
360.000000	86.222	5.1506
365.000000	86.233	5.4605
370.000000	86.234	5.7913
375.000000	86.249	6.1141
382.000000	86.257	6.6375
387.000000	86.249	6.8936
395.000000	86.252	7.4680
400.000000	86.260	7.7299
406.000000	86.267	8.1430
412.000000	86.272	8.5082
418.000000	86.282	8.9289
425.000000	86.283	9.2430
431.000000	86.283	9.6004
437.000000	86.286	9.8893
444.000000	86.296	10.2982
450.000000	86.294	10.6479
455.000000	86.293	10.8918
462.000000	86.289	11.2673
468.000000	86.281	11.6675
475.000000	86.279	12.1002
482.000000	86.266	12.4832
487.000000	86.272	12.8401
494.000000	86.264	13.2677
500.000000	86.270	13.5968
508.000000	86.274	14.0968
515.000000	86.279	14.6055
522.000000	86.274	15.0427
530.000000	86.284	15.5388
538.000000	86.296	16.0229
545.000000	86.301	16.4941
552.000000	86.315	16.9387
560.000000	86.324	17.4582
570.000000	86.330	18.0756
580.000000	86.345	18.7370
590.000000	86.359	19.3496
600.000000	86.376	19.9796
608.000000	86.384	20.4658
615.000000	86.392	20.8805
622.000000	86.401	21.3627
630.000000	86.411	21.8226
640.000000	86.425	22.5001
650.000000	86.436	23.1263
660.000000	86.460	23.7727
670.000000	86.476	24.4020
680.000000	86.487	25.1063
690.000000	86.507	25.7054
700.000000	86.522	26.3920
710.000000	86.542	27.0304
720.000000	86.548	27.6984
730.000000	86.588	28.4701
740.000000	86.613	29.0357
750.000000	86.637	29.7056
762.000000	86.676	30.5306
775.000000	86.714	31.3529
788.000000	86.758	32.2271
800.000000	86.806	33.0456
812.000000	86.846	33.8352
825.000000	86.902	34.6892
838.000000	86.957	35.5170
850.000000	87.024	36.3138
862.000000	87.081	37.0801
875.000000	87.155	37.9116
885.000000	87.215	38.5368
900.000000	87.305	39.4173
912.000000	87.374	40.1305
925.000000	87.473	40.8073
938.000000	87.563	41.5023
950.000000	87.648	42.1392
962.000000	87.747	42.7399
975.000000	87.852	43.3589
988.000000	87.952	43.9345
1000.000000	88.057	44.4797
1015.000000	88.192	45.1084
1030.000000	88.326	45.6294
1044.000000	88.452	46.1007
1060.000000	88.591	46.5970
1075.000000	88.717	47.0254
1090.000000	88.837	47.4075
1106.000000	88.957	47.7648
1120.000000	89.054	48.0820
1138.000000	89.193	48.3637
1150.000000	89.282	48.5895
1172.000000	89.429	48.9006
1180.000000	89.483	49.0089
1206.000000	89.655	49.2648
1220.000000	89.763	49.3679
1241.000000	89.941	49.5747
1250.000000	90.013	49.6517
1265.000000	90.141	49.7680
1280.000000	90.253	49.8849
1315.000000	90.520	50.0982
1320.000000	90.559	50.1100
1340.000000	90.702	50.2506
1360.000000	90.892	50.3548
1380.000000	91.036	50.4642
1400.000000	91.183	50.5214
1430.000000	91.402	50.6759
1450.000000	91.541	50.7618
1475.000000	91.716	50.8662
1500.000000	91.892	50.9482
1525.000000	92.064	51.0191
1550.000000	92.212	51.1050
1575.000000	92.350	51.1764
1600.000000	92.495	51.1893
1625.000000	92.640	51.2060
1650.000000	92.780	51.1941
1675.000000	92.922	51.1722
1700.000000	93.065	51.1262
1725.000000	93.208	51.0306
1750.000000	93.354	50.9005
1775.000000	93.500	50.7580
1800.000000	93.642	50.5864
1825.000000	93.781	50.3674
1850.000000	93.923	50.1244
1875.000000	94.058	49.8281
1900.000000	94.189	49.5121
1925.000000	94.317	49.1583
1950.000000	94.434	48.7877
1975.000000	94.545	48.3631
2000.000000	94.655	47.9185
2030.000000	94.778	47.3945
2060.000000	94.893	46.8610
2090.000000	95.000	46.3718
2120.000000	95.107	45.9555
2140.000000	95.188	45.7038
2180.000000	95.393	45.1165
2200.000000	95.507	44.6326
2240.000000	95.705	43.2642
2270.000000	95.808	42.0687
2300.000000	95.877	40.8552
2330.000000	95.929	39.6738
2360.000000	95.964	38.5251
2400.000000	95.990	37.0387
2430.000000	95.991	35.9495
2470.000000	95.975	34.5388
2500.000000	95.949	33.4750
2540.000000	95.892	32.0845
2580.000000	95.807	30.7532
2620.000000	95.693	29.5242
2650.000000	95.587	28.6542
2690.000000	95.426	27.6339
2720.000000	95.287	26.9820
2760.000000	95.092	26.3693
2800.000000	94.889	26.0241
2850.000000	94.652	25.9420
2900.000000	94.443	26.1198
2950.000000	94.269	26.4316
3000.000000	94.123	26.8550
3040.000000	94.015	27.1843
3070.000000	93.940	27.4058
3110.000000	93.842	27.7492
3150.000000	93.744	28.0886
3200.000000	93.616	28.6012
3250.000000	93.489	29.3068
3300.000000	93.387	30.2098
3350.000000	93.324	31.1739
3400.000000	93.288	32.1230
3450.000000	93.273	33.0134
3500.000000	93.277	33.8215
3550.000000	93.299	34.6464
3600.000000	93.337	35.3911
3650.000000	93.395	36.0431
3700.000000	93.469	36.5797
3750.000000	93.547	36.9840
3820.000000	93.669	37.3355
3870.000000	93.757	37.3361
3950.000000	93.882	36.9335
4000.000000	93.935	36.4329
4060.000000	93.960	35.6607
4120.000000	93.926	34.6965
4180.000000	93.824	33.8025
4250.000000	93.631	33.0026
4310.000000	93.415	32.6652
4370.000000	93.181	32.7611
4440.000000	92.906	33.4166
4500.000000	92.681	34.4833
4550.000000	92.519	35.6467
4620.000000	92.361	37.6050
4680.000000	92.292	39.4706
4750.000000	92.301	41.6095
4820.000000	92.391	43.5626
4870.000000	92.493	44.7110
4940.000000	92.674	45.9157
5000.000000	92.845	46.5546
5080.000000	93.074	46.8882
5150.000000	93.247	46.6685
5220.000000	93.381	45.9977
5300.000000	93.456	44.8435
5380.000000	93.422	43.4938
5450.000000	93.314	42.3690
5520.000000	93.122	41.4069
5600.000000	92.842	40.6519
5700.000000	92.432	40.3176
5800.000000	91.989	40.7832
5900.000000	91.552	41.8836
6000.000000	91.144	43.6850
6080.000000	90.845	45.5145
6150.000000	90.618	47.3668
6220.000000	90.417	49.4239
6300.000000	90.251	51.9430
6400.000000	90.105	55.3016
6500.000000	90.039	58.7479
6600.000000	90.061	62.3131
6700.000000	90.182	65.7824
6800.000000	90.395	69.0474
6900.000000	90.732	71.9829
7000.000000	91.191	74.4501
7100.000000	91.714	76.2920
7200.000000	92.272	77.3956
7300.000000	92.853	77.8850
7400.000000	93.441	77.4449
7500.000000	93.971	76.2147
7620.000000	94.498	73.8320
7750.000000	95.006	70.7264
7880.000000	95.180	67.4311
8000.000000	95.239	64.4409
8120.000000	95.261	61.4649
8250.000000	95.267	57.9420
8380.000000	95.184	53.7164
8500.000000	94.956	49.1705
8620.000000	94.510	44.4995
8750.000000	93.729	40.1148
8850.000000	92.980	37.7092
9000.000000	91.759	36.0484
9120.000000	90.786	36.2762
9250.000000	89.811	37.7898
9380.000000	88.954	40.2393
9500.000000	88.264	43.1258
9620.000000	87.698	46.3291
9750.000000	87.205	50.0677
9880.000000	86.837	53.5563
10000.000000	86.569	56.7284
10150.000000	86.317	60.6252
10300.000000	86.201	63.8291
10440.000000	86.113	66.3633
10600.000000	86.053	68.1109
10750.000000	85.917	68.9611
10900.000000	85.639	69.2822
11060.000000	85.142	69.8144
11200.000000	84.590	71.3758
11380.000000	83.849	75.2683
11500.000000	83.525	78.9803
11720.000000	83.186	85.1502
11800.000000	83.104	87.4994
12060.000000	83.203	94.8326
12200.000000	83.380	97.4164
12410.000000	83.619	100.4875
12500.000000	83.731	101.7599
12650.000000	83.966	103.8151
12800.000000	84.270	105.4532
13150.000000	85.208	105.2158
13200.000000	85.325	104.5655
13400.000000	85.582	100.7612
13600.000000	85.429	96.2577
13800.000000	84.910	92.9659
14000.000000	84.262	91.9821
14300.000000	83.472	93.6254
14500.000000	83.205	95.0989
14750.000000	83.034	96.1556
15000.000000	82.781	94.9239
15250.000000	82.109	92.6597
15500.000000	80.822	91.7349
15750.000000	79.341	95.3148
16000.000000	78.093	102.6328
16250.000000	77.176	111.1366
16500.000000	76.545	119.9542
16750.000000	76.100	130.1531
17000.000000	75.954	140.8943
17250.000000	76.299	151.6243
17500.000000	77.258	159.8140
17750.000000	78.250	163.9498
18000.000000	79.107	164.0652
18250.000000	79.675	161.9795
18500.000000	79.913	157.9036
18750.000000	79.773	152.8822
19000.000000	79.217	148.2493
19250.000000	78.183	144.7952
19500.000000	76.921	143.7126
19750.000000	75.578	146.2693
