* Measurement data measured by REW V5.20.4
* Source: Microphone (2- KM-HIFI-384KHZ), MICROPHONE (Master Volume), L, volume: 0.250
* Format: 256k Log Swept Sine, 1 sweep at -6.0 dBFS with no timing reference
* Dated: 9 Feb, 2022 4:04:07 PM
* REW Settings:
*  C-weighting compensation: Off
*  Target level: 75.0 dB
* Note: 
* Measurement: Monarch Mk2 L
* Smoothing: None
* Frequency Step: 1/48 octave
* Start Frequency: 20.000 Hz
*
* Freq(Hz)	SPL(dB)	Phase(degrees)
20.000000	96.503	-2.7738
20.299999	96.497	-3.1860
20.600000	96.493	-3.5972
20.900000	96.490	-4.0101
21.200001	96.484	-4.4369
21.400000	96.479	-4.7189
21.799999	96.463	-5.2458
22.000000	96.453	-5.4788
22.400000	96.434	-5.8746
22.700001	96.426	-6.1043
23.000000	96.429	-6.3100
23.299999	96.444	-6.5482
23.600000	96.464	-6.8514
24.000000	96.491	-7.3869
24.299999	96.500	-7.8712
24.700001	96.490	-8.5445
25.000000	96.466	-9.0020
25.400000	96.423	-9.4996
25.799999	96.382	-9.8726
26.200001	96.349	-10.1998
26.500000	96.327	-10.4502
26.900000	96.292	-10.7737
27.200001	96.262	-10.9787
27.600000	96.228	-11.1678
28.000000	96.219	-11.3014
28.500000	96.247	-11.6283
29.000000	96.284	-12.3584
29.500000	96.272	-13.3999
30.000000	96.195	-14.3286
30.400000	96.120	-14.7780
30.700001	96.076	-14.9481
31.100000	96.050	-15.1152
31.500000	96.054	-15.3933
32.000000	96.059	-15.9867
32.500000	96.033	-16.6757
33.000000	95.985	-17.2112
33.500000	95.944	-17.5931
34.000000	95.919	-17.9777
34.500000	95.895	-18.4284
35.000000	95.858	-18.8331
35.500000	95.824	-19.1267
36.000000	95.810	-19.4166
36.500000	95.802	-19.8499
37.000000	95.775	-20.3968
37.500000	95.722	-20.8974
38.200001	95.641	-21.3621
38.700001	95.598	-21.6449
39.500000	95.533	-22.2030
40.000000	95.485	-22.5282
40.599998	95.437	-22.8528
41.200001	95.403	-23.2127
41.799999	95.365	-23.6473
42.500000	95.308	-24.1305
43.099998	95.260	-24.4848
43.700001	95.213	-24.8339
44.400002	95.153	-25.2225
45.000000	95.103	-25.5246
45.500000	95.063	-25.7958
46.200001	94.998	-26.2047
46.799999	94.936	-26.5029
47.500000	94.875	-26.7971
48.200001	94.824	-27.1863
48.700001	94.780	-27.5160
49.400002	94.705	-27.8937
50.000000	94.650	-28.1086
50.799999	94.599	-28.4212
51.500000	94.557	-28.7989
52.200001	94.502	-29.1868
53.000000	94.431	-29.5798
53.799999	94.353	-29.9225
54.500000	94.280	-30.1617
55.200001	94.214	-30.3709
56.000000	94.145	-30.6750
57.000000	94.045	-31.1020
58.000000	93.950	-31.4666
59.000000	93.856	-31.8894
60.000000	93.757	-32.1452
60.799999	93.708	-32.3600
61.500000	93.653	-32.6498
62.200001	93.580	-32.8086
63.000000	93.515	-32.8376
64.000000	93.440	-33.0457
65.000000	93.345	-33.1186
66.000000	93.282	-33.3353
67.000000	93.165	-33.7291
68.000000	93.055	-33.8088
69.000000	92.969	-34.1102
70.000000	92.854	-34.3550
71.000000	92.766	-34.4599
72.000000	92.690	-34.6830
73.000000	92.595	-34.9067
74.000000	92.508	-34.9456
75.000000	92.437	-35.1380
76.199997	92.316	-35.2316
77.500000	92.219	-35.3568
78.800003	92.091	-35.3811
80.000000	91.997	-35.4110
81.199997	91.896	-35.3831
82.500000	91.802	-35.4269
83.800003	91.695	-35.6099
85.000000	91.564	-35.5511
86.199997	91.501	-35.5049
87.500000	91.375	-35.7340
88.500000	91.292	-35.6323
90.000000	91.176	-35.6195
91.199997	91.091	-35.5968
92.500000	90.987	-35.4773
93.800003	90.902	-35.3777
95.000000	90.832	-35.1963
96.199997	90.750	-35.3215
97.500000	90.646	-35.0056
98.800003	90.535	-34.9544
100.000000	90.487	-34.3250
101.500000	90.394	-34.8746
103.000000	90.265	-34.2877
104.400002	90.184	-34.4172
106.000000	90.051	-34.1265
107.500000	89.969	-33.9897
109.000000	89.860	-33.7047
110.599998	89.809	-33.4797
112.000000	89.693	-33.5201
113.800003	89.591	-33.1240
115.000000	89.509	-32.8903
117.199997	89.398	-32.5659
118.000000	89.345	-32.4717
120.599998	89.196	-32.0708
122.000000	89.111	-31.7186
124.099998	89.006	-31.0919
125.000000	89.000	-30.9554
126.500000	88.913	-30.9026
128.000000	88.835	-30.5197
131.500000	88.650	-29.9872
132.000000	88.617	-29.7422
134.000000	88.563	-29.3684
136.000000	88.477	-29.0296
138.000000	88.419	-28.3655
140.000000	88.300	-27.8179
143.000000	88.205	-27.5283
145.000000	88.101	-26.9052
147.500000	88.023	-26.3514
150.000000	87.954	-25.7974
152.500000	87.874	-25.3593
155.000000	87.770	-24.7080
157.500000	87.696	-24.1858
160.000000	87.589	-23.5037
162.500000	87.506	-22.8161
165.000000	87.418	-22.2317
167.500000	87.361	-21.6786
170.000000	87.251	-20.8925
172.500000	87.194	-19.8536
175.000000	87.137	-19.1774
177.500000	87.114	-18.4302
180.000000	87.135	-17.4225
182.500000	87.185	-16.5996
185.000000	87.194	-16.1990
187.500000	87.211	-15.8238
190.000000	87.159	-15.6949
192.500000	87.168	-15.2557
195.000000	87.115	-14.7956
197.500000	87.124	-14.5451
200.000000	87.097	-13.8534
203.000000	87.055	-13.4262
206.000000	87.046	-13.0188
209.000000	87.014	-12.3351
212.000000	87.000	-11.6385
214.000000	87.007	-11.3689
218.000000	86.992	-10.6815
220.000000	87.006	-10.3129
224.000000	86.994	-9.6038
227.000000	87.014	-9.4958
230.000000	87.002	-9.1015
233.000000	86.983	-8.5412
236.000000	86.974	-8.1570
240.000000	86.990	-7.7639
243.000000	86.973	-7.3549
247.000000	86.942	-6.7207
250.000000	86.969	-6.3612
254.000000	86.957	-5.9966
258.000000	86.957	-5.4793
262.000000	86.966	-4.9965
265.000000	86.967	-4.6266
269.000000	86.958	-4.0370
272.000000	86.955	-3.6515
276.000000	86.958	-3.3457
280.000000	86.962	-2.8724
285.000000	86.954	-2.3972
290.000000	86.937	-1.9412
295.000000	86.943	-1.3878
300.000000	86.932	-0.9022
304.000000	86.961	-0.5203
307.000000	86.956	-0.2309
311.000000	86.948	0.2765
315.000000	86.945	0.6128
320.000000	86.947	1.0608
325.000000	86.947	1.5787
330.000000	86.942	2.0088
335.000000	86.944	2.4999
340.000000	86.940	2.9760
345.000000	86.961	3.5843
350.000000	86.969	4.1637
355.000000	87.015	4.6583
360.000000	87.037	5.1308
365.000000	87.075	5.4997
370.000000	87.124	5.6447
375.000000	87.154	5.8914
382.000000	87.169	6.2845
387.000000	87.180	6.5930
395.000000	87.187	6.9480
400.000000	87.205	7.3247
406.000000	87.204	7.7200
412.000000	87.210	8.0046
418.000000	87.234	8.5265
425.000000	87.233	8.8311
431.000000	87.234	9.2571
437.000000	87.266	9.6683
444.000000	87.295	10.1155
450.000000	87.308	10.5465
455.000000	87.336	10.7910
462.000000	87.381	11.0084
468.000000	87.395	11.2368
475.000000	87.444	11.3250
482.000000	87.483	11.5280
487.000000	87.482	11.4959
494.000000	87.474	11.5350
500.000000	87.471	11.5664
508.000000	87.439	11.7627
515.000000	87.419	11.9981
522.000000	87.395	12.1787
530.000000	87.363	12.6671
538.000000	87.347	13.0414
545.000000	87.324	13.3710
552.000000	87.307	13.7639
560.000000	87.294	14.1971
570.000000	87.268	14.7468
580.000000	87.251	15.3800
590.000000	87.245	16.0007
600.000000	87.237	16.5625
608.000000	87.230	17.0531
615.000000	87.219	17.5397
622.000000	87.217	17.9279
630.000000	87.211	18.4279
640.000000	87.199	19.0242
650.000000	87.198	19.6056
660.000000	87.196	20.3875
670.000000	87.186	20.9246
680.000000	87.200	21.5659
690.000000	87.190	22.1977
700.000000	87.164	22.8666
710.000000	87.179	23.4381
720.000000	87.208	24.1279
730.000000	87.195	24.9427
740.000000	87.205	25.6462
750.000000	87.213	26.1160
762.000000	87.235	27.0234
775.000000	87.247	28.0560
788.000000	87.276	28.9593
800.000000	87.290	29.7970
812.000000	87.322	30.7114
825.000000	87.376	31.7524
838.000000	87.417	32.5375
850.000000	87.485	33.4121
862.000000	87.548	34.2712
875.000000	87.673	35.0395
885.000000	87.738	35.7624
900.000000	87.854	36.6158
912.000000	87.952	37.0659
925.000000	88.070	37.4454
938.000000	88.152	37.7965
950.000000	88.236	38.0048
962.000000	88.302	38.2504
975.000000	88.339	38.4488
988.000000	88.435	38.8100
1000.000000	88.466	38.9921
1015.000000	88.527	39.4218
1030.000000	88.577	39.9114
1044.000000	88.641	40.4015
1060.000000	88.723	40.7204
1075.000000	88.785	41.2661
1090.000000	88.836	41.5711
1106.000000	88.905	41.9530
1120.000000	88.952	42.3558
1138.000000	89.015	42.7793
1150.000000	89.053	43.0097
1172.000000	89.139	43.4961
1180.000000	89.160	43.7127
1206.000000	89.242	44.1848
1220.000000	89.315	44.4537
1241.000000	89.424	44.8047
1250.000000	89.466	45.0075
1265.000000	89.546	45.2888
1280.000000	89.619	45.5626
1315.000000	89.784	46.1818
1320.000000	89.806	46.2242
1340.000000	89.908	46.5852
1360.000000	90.036	46.9755
1380.000000	90.131	47.3733
1400.000000	90.226	47.7417
1430.000000	90.370	48.2626
1450.000000	90.464	48.6629
1475.000000	90.574	49.2075
1500.000000	90.693	49.6573
1525.000000	90.808	50.1835
1550.000000	90.904	50.6731
1575.000000	90.998	51.1718
1600.000000	91.094	51.6881
1625.000000	91.187	52.1807
1650.000000	91.287	52.6623
1675.000000	91.390	53.1643
1700.000000	91.497	53.6320
1725.000000	91.603	54.0857
1750.000000	91.716	54.5580
1775.000000	91.830	54.9842
1800.000000	91.948	55.3815
1825.000000	92.068	55.7652
1850.000000	92.190	56.1466
1875.000000	92.316	56.5020
1900.000000	92.441	56.7683
1925.000000	92.573	57.1028
1950.000000	92.693	57.3384
1975.000000	92.826	57.5705
2000.000000	92.966	57.7447
2030.000000	93.126	57.9431
2060.000000	93.289	58.0575
2090.000000	93.451	58.0976
2120.000000	93.612	58.0773
2140.000000	93.724	58.0155
2180.000000	93.940	57.8051
2200.000000	94.044	57.6692
2240.000000	94.248	57.2978
2270.000000	94.396	56.9196
2300.000000	94.533	56.4579
2330.000000	94.675	55.9356
2360.000000	94.802	55.3366
2400.000000	94.949	54.4417
2430.000000	95.047	53.7295
2470.000000	95.156	52.6941
2500.000000	95.221	51.9075
2540.000000	95.286	50.8081
2580.000000	95.323	49.7468
2620.000000	95.337	48.7060
2650.000000	95.331	47.9780
2690.000000	95.302	47.1207
2720.000000	95.267	46.5582
2760.000000	95.213	45.9382
2800.000000	95.154	45.4968
2850.000000	95.098	45.2715
2900.000000	95.095	45.1308
2950.000000	95.135	44.7231
3000.000000	95.152	44.0150
3040.000000	95.147	43.3925
3070.000000	95.126	42.9356
3110.000000	95.095	42.3847
3150.000000	95.055	41.8382
3200.000000	94.999	41.1846
3250.000000	94.935	40.5797
3300.000000	94.871	39.9532
3350.000000	94.801	39.2914
3400.000000	94.722	38.6357
3450.000000	94.637	37.9335
3500.000000	94.528	37.1180
3550.000000	94.402	36.2804
3600.000000	94.240	35.4066
3650.000000	94.039	34.5263
3700.000000	93.781	33.7863
3750.000000	93.470	33.3830
3820.000000	92.997	33.5879
3870.000000	92.657	34.2613
3950.000000	92.148	36.1146
4000.000000	91.864	37.8427
4060.000000	91.596	40.4138
4120.000000	91.446	43.3694
4180.000000	91.410	46.3813
4250.000000	91.509	49.5978
4310.000000	91.696	51.9855
4370.000000	91.943	53.8286
4440.000000	92.281	55.3316
4500.000000	92.584	56.0311
4550.000000	92.837	56.2262
4620.000000	93.179	56.0170
4680.000000	93.442	55.3667
4750.000000	93.719	54.1796
4820.000000	93.940	52.5832
4870.000000	94.061	51.1790
4940.000000	94.163	48.9228
5000.000000	94.180	46.8064
5080.000000	94.104	43.9890
5150.000000	93.950	41.5360
5220.000000	93.715	39.2644
5300.000000	93.371	37.0579
5380.000000	92.962	35.2295
5450.000000	92.567	34.0652
5520.000000	92.142	33.2429
5600.000000	91.643	32.7354
5700.000000	91.035	32.7068
5800.000000	90.431	33.1728
5900.000000	89.854	34.1186
6000.000000	89.315	35.4709
6080.000000	88.898	36.8172
6150.000000	88.561	38.1540
6220.000000	88.254	39.8094
6300.000000	87.932	41.8757
6400.000000	87.608	44.8745
6500.000000	87.403	47.8784
6600.000000	87.269	50.8938
6700.000000	87.219	53.8057
6800.000000	87.257	56.4212
6900.000000	87.393	58.8723
7000.000000	87.639	61.0784
7100.000000	87.963	62.9398
7200.000000	88.368	64.3159
7300.000000	88.819	65.2436
7400.000000	89.342	65.4499
7500.000000	89.907	64.8063
7620.000000	90.601	62.6918
7750.000000	91.374	58.5707
7880.000000	91.754	52.7311
8000.000000	91.810	46.2173
8120.000000	91.540	39.8093
8250.000000	90.921	33.8936
8380.000000	90.102	29.8514
8500.000000	89.280	27.8640
8620.000000	88.495	27.3462
8750.000000	87.690	28.0592
8850.000000	87.158	29.3306
9000.000000	86.480	32.0214
9120.000000	86.083	34.7398
9250.000000	85.753	37.8596
9380.000000	85.536	40.9216
9500.000000	85.435	43.7263
9620.000000	85.474	46.5647
9750.000000	85.512	49.1200
9880.000000	85.632	51.2967
10000.000000	85.771	53.0441
10150.000000	85.977	54.5931
10300.000000	86.162	56.1935
10440.000000	86.343	56.8087
10600.000000	86.495	57.3876
10750.000000	86.590	57.2951
10900.000000	86.579	57.0533
11060.000000	86.451	56.8327
11200.000000	86.229	56.9554
11380.000000	85.853	58.5605
11500.000000	85.685	60.4140
11720.000000	85.556	64.0590
11800.000000	85.549	65.1883
12060.000000	85.561	68.3308
12200.000000	85.580	69.5962
12410.000000	85.543	71.4673
12500.000000	85.522	72.2818
12650.000000	85.499	74.1315
12800.000000	85.505	76.1328
13150.000000	85.788	80.5954
13200.000000	85.878	80.9608
13400.000000	86.177	81.9529
13600.000000	86.488	81.2452
13800.000000	86.617	78.5741
14000.000000	86.317	74.9269
14300.000000	85.001	71.6745
14500.000000	83.768	72.6554
14750.000000	82.225	78.3377
15000.000000	80.867	87.0020
15250.000000	79.802	97.9791
15500.000000	79.065	110.9135
15750.000000	78.693	124.1332
16000.000000	78.620	137.5352
16250.000000	78.871	149.6766
16500.000000	79.376	161.0501
16750.000000	80.050	170.3215
17000.000000	80.765	177.2175
17250.000000	81.391	-177.9909
17500.000000	81.760	-174.7903
17750.000000	81.922	-172.7762
18000.000000	81.933	-170.6816
18250.000000	81.837	-169.4084
18500.000000	81.532	-169.7553
18750.000000	80.911	-170.8699
19000.000000	79.819	-171.7939
19250.000000	78.328	-171.0119
19500.000000	76.648	-167.4119
19750.000000	74.870	-160.8912
