* Measurement data measured by REW V5.20.4
* Source: Microphone (2- KM-HIFI-384KHZ), MICROPHONE (Master Volume), R, volume: 0.250
* Format: 256k Log Swept Sine, 1 sweep at -6.0 dBFS with no timing reference
* Dated: 15 Feb, 2022 5:13:16 PM
* REW Settings:
*  C-weighting compensation: Off
*  Target level: 75.0 dB
* Note: 
* Measurement: Biento L
* Smoothing: None
* Frequency Step: 1/48 octave
* Start Frequency: 20.000 Hz
*
* Freq(Hz)	SPL(dB)	Phase(degrees)
20.000000	101.280	149.8367
20.299999	101.238	149.6995
20.600000	101.208	149.5782
20.900000	101.191	149.4098
21.200001	101.177	149.1260
21.400000	101.165	148.8768
21.799999	101.120	148.3108
22.000000	101.086	148.0379
22.400000	101.007	147.5958
22.700001	100.951	147.3815
23.000000	100.911	147.2069
23.299999	100.885	146.9650
23.600000	100.863	146.6092
24.000000	100.815	145.9819
24.299999	100.753	145.5213
24.700001	100.647	145.1420
25.000000	100.578	145.0992
25.400000	100.540	145.2073
25.799999	100.569	145.0877
26.200001	100.609	144.3921
26.500000	100.593	143.5510
26.900000	100.471	142.3968
27.200001	100.312	141.8737
27.600000	100.082	141.9710
28.000000	99.942	142.8271
28.500000	99.970	143.8024
29.000000	100.079	143.5295
29.500000	100.068	142.3362
30.000000	99.908	141.5220
30.400000	99.785	141.5781
30.700001	99.754	141.8229
31.100000	99.790	141.8116
31.500000	99.834	141.0810
32.000000	99.756	139.5783
32.500000	99.508	138.6702
33.000000	99.276	139.1639
33.500000	99.245	140.2467
34.000000	99.376	140.4177
34.500000	99.461	139.4060
35.000000	99.391	138.1627
35.500000	99.235	137.6039
36.000000	99.118	137.6951
36.500000	99.072	137.8079
37.000000	99.033	137.6648
37.500000	98.966	137.5343
38.200001	98.901	137.6191
38.700001	98.896	137.4311
39.500000	98.798	136.3771
40.000000	98.638	135.9842
40.599998	98.461	136.3405
41.200001	98.427	136.8947
41.799999	98.465	136.6604
42.500000	98.402	135.6739
43.099998	98.261	135.3022
43.700001	98.178	135.4460
44.400002	98.173	135.2709
45.000000	98.132	134.6873
45.500000	98.060	134.3551
46.200001	97.988	134.1660
46.799999	97.947	133.7328
47.500000	97.813	133.1571
48.200001	97.657	133.3897
48.700001	97.629	133.7826
49.400002	97.667	133.6514
50.000000	97.641	132.9678
50.799999	97.500	132.2759
51.500000	97.373	132.0844
52.200001	97.271	132.0150
53.000000	97.184	131.9536
53.799999	97.112	131.6989
54.500000	97.025	131.4233
55.200001	96.936	131.3380
56.000000	96.873	131.2294
57.000000	96.778	130.7890
58.000000	96.646	130.6108
59.000000	96.550	130.4969
60.000000	96.427	130.2564
60.799999	96.331	130.2310
61.500000	96.262	130.1749
62.200001	96.188	130.0916
63.000000	96.117	130.0336
64.000000	96.036	129.6757
65.000000	95.904	129.4406
66.000000	95.823	129.4661
67.000000	95.749	129.1350
68.000000	95.634	128.9619
69.000000	95.544	128.9437
70.000000	95.459	128.8115
71.000000	95.359	128.6876
72.000000	95.263	128.6469
73.000000	95.173	128.5546
74.000000	95.078	128.4708
75.000000	94.993	128.3977
76.199997	94.890	128.2645
77.500000	94.775	128.1393
78.800003	94.663	128.0758
80.000000	94.567	128.0099
81.199997	94.468	127.9170
82.500000	94.359	127.8718
83.800003	94.259	127.8144
85.000000	94.159	127.6910
86.199997	94.051	127.6772
87.500000	93.949	127.5955
88.500000	93.854	127.5899
90.000000	93.740	127.6517
91.199997	93.641	127.6611
92.500000	93.539	127.7591
93.800003	93.447	127.7995
95.000000	93.352	127.7752
96.199997	93.244	127.7768
97.500000	93.128	127.8694
98.800003	93.014	128.1148
100.000000	92.963	128.2835
101.500000	92.844	128.1107
103.000000	92.730	128.3351
104.400002	92.612	128.4153
106.000000	92.523	129.0546
107.500000	92.458	129.2670
109.000000	92.428	129.5893
110.599998	92.365	129.8042
112.000000	92.348	129.7888
113.800003	92.284	129.4772
115.000000	92.200	129.3069
117.199997	92.104	129.1296
118.000000	92.051	129.0023
120.599998	91.895	129.0226
122.000000	91.812	128.9473
124.099998	91.685	128.9818
125.000000	91.628	128.9678
126.500000	91.540	129.0016
128.000000	91.454	129.0038
131.500000	91.274	129.1793
132.000000	91.249	129.1823
134.000000	91.130	129.2736
136.000000	91.019	129.4328
138.000000	90.912	129.6233
140.000000	90.821	129.6634
143.000000	90.678	129.8061
145.000000	90.581	129.9457
147.500000	90.466	130.0596
150.000000	90.339	130.2120
152.500000	90.217	130.3793
155.000000	90.091	130.5337
157.500000	89.968	130.6908
160.000000	89.839	130.8961
162.500000	89.724	131.0851
165.000000	89.596	131.2668
167.500000	89.478	131.4480
170.000000	89.365	131.6822
172.500000	89.259	131.8591
175.000000	89.149	132.0867
177.500000	89.036	132.3761
180.000000	88.927	132.5843
182.500000	88.835	132.9039
185.000000	88.746	133.2393
187.500000	88.644	133.7748
190.000000	88.558	134.0997
192.500000	88.467	134.3234
195.000000	88.418	134.6923
197.500000	88.360	135.0094
200.000000	88.267	135.2121
203.000000	88.198	135.2874
206.000000	88.111	135.3858
209.000000	88.021	135.6346
212.000000	87.921	135.8409
214.000000	87.854	135.9932
218.000000	87.726	136.3820
220.000000	87.655	136.5107
224.000000	87.523	136.8870
227.000000	87.427	137.2043
230.000000	87.331	137.5573
233.000000	87.233	137.9104
236.000000	87.136	138.2047
240.000000	87.002	138.6815
243.000000	86.920	139.0231
247.000000	86.811	139.5126
250.000000	86.724	139.8335
254.000000	86.620	140.2142
258.000000	86.512	140.7241
262.000000	86.420	141.1569
265.000000	86.348	141.4931
269.000000	86.249	141.9314
272.000000	86.174	142.2789
276.000000	86.078	142.7701
280.000000	85.978	143.2864
285.000000	85.857	143.8139
290.000000	85.735	144.4244
295.000000	85.612	145.0354
300.000000	85.503	145.6823
304.000000	85.420	146.1451
307.000000	85.355	146.4260
311.000000	85.252	146.8481
315.000000	85.161	147.3928
320.000000	85.054	148.0967
325.000000	84.951	148.6963
330.000000	84.851	149.2708
335.000000	84.754	149.9108
340.000000	84.645	150.5186
345.000000	84.540	151.0801
350.000000	84.452	151.6953
355.000000	84.367	152.3654
360.000000	84.280	153.0761
365.000000	84.182	153.7328
370.000000	84.085	154.3340
375.000000	84.005	154.8835
382.000000	83.906	155.7927
387.000000	83.819	156.5121
395.000000	83.689	157.4712
400.000000	83.612	158.1829
406.000000	83.516	158.9325
412.000000	83.427	159.6884
418.000000	83.344	160.5241
425.000000	83.240	161.4553
431.000000	83.152	162.2131
437.000000	83.069	163.0417
444.000000	82.971	163.9795
450.000000	82.887	164.7970
455.000000	82.820	165.5075
462.000000	82.730	166.4293
468.000000	82.646	167.2617
475.000000	82.558	168.2784
482.000000	82.475	169.2729
487.000000	82.420	169.9707
494.000000	82.337	171.0233
500.000000	82.265	171.8809
508.000000	82.182	173.0782
515.000000	82.107	174.0970
522.000000	82.036	175.1928
530.000000	81.950	176.4477
538.000000	81.874	177.6514
545.000000	81.806	178.8246
552.000000	81.748	179.9277
560.000000	81.678	-178.7599
570.000000	81.590	-177.0695
580.000000	81.515	-175.3001
590.000000	81.448	-173.5882
600.000000	81.387	-171.7065
608.000000	81.353	-170.2328
615.000000	81.319	-168.9060
622.000000	81.298	-167.5691
630.000000	81.278	-165.9926
640.000000	81.267	-164.0197
650.000000	81.271	-162.0282
660.000000	81.290	-159.9270
670.000000	81.334	-157.9005
680.000000	81.399	-155.8649
690.000000	81.465	-153.8563
700.000000	81.553	-151.8724
710.000000	81.667	-150.0596
720.000000	81.803	-148.2764
730.000000	81.941	-146.6567
740.000000	82.098	-145.1599
750.000000	82.262	-143.6926
762.000000	82.469	-142.1139
775.000000	82.690	-140.5950
788.000000	82.908	-139.3519
800.000000	83.102	-138.2826
812.000000	83.283	-137.3074
825.000000	83.478	-136.3299
838.000000	83.658	-135.5341
850.000000	83.816	-134.7921
862.000000	83.964	-134.0117
875.000000	84.140	-133.3780
885.000000	84.250	-132.9350
900.000000	84.400	-132.2363
912.000000	84.536	-131.5912
925.000000	84.673	-130.8789
938.000000	84.794	-130.2544
950.000000	84.917	-129.8578
962.000000	85.030	-129.3387
975.000000	85.171	-128.6584
988.000000	85.277	-128.1261
1000.000000	85.402	-127.6267
1015.000000	85.530	-127.0396
1030.000000	85.667	-126.4435
1044.000000	85.790	-125.8148
1060.000000	85.929	-125.1580
1075.000000	86.054	-124.6278
1090.000000	86.169	-124.0536
1106.000000	86.275	-123.4277
1120.000000	86.384	-122.9361
1138.000000	86.512	-122.3079
1150.000000	86.596	-121.9241
1172.000000	86.762	-121.1246
1180.000000	86.820	-120.8753
1206.000000	86.997	-119.9666
1220.000000	87.115	-119.5164
1241.000000	87.312	-118.8036
1250.000000	87.398	-118.5105
1265.000000	87.536	-117.9894
1280.000000	87.673	-117.4776
1315.000000	87.995	-116.3124
1320.000000	88.040	-116.1357
1340.000000	88.234	-115.4946
1360.000000	88.474	-114.8217
1380.000000	88.666	-114.1904
1400.000000	88.864	-113.5262
1430.000000	89.171	-112.5684
1450.000000	89.385	-111.9926
1475.000000	89.649	-111.2091
1500.000000	89.919	-110.4811
1525.000000	90.187	-109.7891
1550.000000	90.450	-109.0804
1575.000000	90.725	-108.5126
1600.000000	90.997	-107.9478
1625.000000	91.280	-107.4220
1650.000000	91.572	-107.0368
1675.000000	91.871	-106.7128
1700.000000	92.175	-106.3796
1725.000000	92.480	-106.1753
1750.000000	92.801	-106.1231
1775.000000	93.128	-106.1188
1800.000000	93.457	-106.2066
1825.000000	93.787	-106.4394
1850.000000	94.126	-106.8376
1875.000000	94.463	-107.3737
1900.000000	94.791	-108.0198
1925.000000	95.126	-108.8285
1950.000000	95.451	-109.8640
1975.000000	95.768	-111.0534
2000.000000	96.073	-112.3841
2030.000000	96.415	-114.2079
2060.000000	96.729	-116.3372
2090.000000	97.012	-118.6809
2120.000000	97.248	-121.1567
2140.000000	97.379	-122.9100
2180.000000	97.572	-126.5651
2200.000000	97.631	-128.4077
2240.000000	97.678	-132.0649
2270.000000	97.654	-134.7310
2300.000000	97.579	-137.2243
2330.000000	97.462	-139.5251
2360.000000	97.304	-141.6169
2400.000000	97.051	-144.0038
2430.000000	96.838	-145.4848
2470.000000	96.534	-147.0235
2500.000000	96.300	-147.8313
2540.000000	95.999	-148.4440
2580.000000	95.742	-148.6786
2620.000000	95.535	-148.9052
2650.000000	95.387	-149.0435
2690.000000	95.175	-149.0670
2720.000000	95.018	-148.9830
2760.000000	94.827	-148.8070
2800.000000	94.642	-148.4308
2850.000000	94.428	-147.6696
2900.000000	94.246	-146.7062
2950.000000	94.106	-145.6303
3000.000000	93.995	-144.3481
3040.000000	93.933	-143.3131
3070.000000	93.900	-142.5111
3110.000000	93.875	-141.4357
3150.000000	93.863	-140.3018
3200.000000	93.871	-138.8211
3250.000000	93.914	-137.3672
3300.000000	93.992	-135.9195
3350.000000	94.103	-134.5285
3400.000000	94.245	-133.1488
3450.000000	94.426	-131.8201
3500.000000	94.648	-130.6685
3550.000000	94.904	-129.5639
3600.000000	95.200	-128.6489
3650.000000	95.543	-127.9820
3700.000000	95.917	-127.5110
3750.000000	96.322	-127.3584
3820.000000	96.965	-127.8556
3870.000000	97.465	-128.8403
3950.000000	98.286	-131.6833
4000.000000	98.789	-134.5293
4060.000000	99.345	-139.1236
4120.000000	99.751	-144.9452
4180.000000	99.939	-151.7405
4250.000000	99.823	-160.0867
4310.000000	99.446	-166.8740
4370.000000	98.863	-172.9017
4440.000000	97.985	-178.6427
4500.000000	97.125	177.7496
4550.000000	96.380	175.6523
4620.000000	95.339	173.9519
4680.000000	94.477	173.4605
4750.000000	93.528	173.7554
4820.000000	92.650	174.7574
4870.000000	92.060	175.8057
4940.000000	91.288	177.7309
5000.000000	90.666	179.6274
5080.000000	89.922	-177.4262
5150.000000	89.321	-174.6107
5220.000000	88.784	-171.6127
5300.000000	88.231	-167.9580
5380.000000	87.752	-164.2139
5450.000000	87.375	-160.8140
5520.000000	87.039	-157.4541
5600.000000	86.690	-153.4960
5700.000000	86.302	-148.6394
5800.000000	85.983	-143.6459
5900.000000	85.727	-138.5495
6000.000000	85.509	-133.4026
6080.000000	85.378	-129.2088
6150.000000	85.273	-125.6868
6220.000000	85.220	-121.8444
6300.000000	85.158	-117.6210
6400.000000	85.173	-112.1468
6500.000000	85.283	-106.7480
6600.000000	85.489	-101.1933
6700.000000	85.722	-95.8096
6800.000000	86.059	-90.4059
6900.000000	86.521	-85.1579
7000.000000	87.113	-80.1251
7100.000000	87.784	-75.2985
7200.000000	88.589	-70.6522
7300.000000	89.492	-66.4578
7400.000000	90.579	-62.5764
7500.000000	91.834	-59.5770
7620.000000	93.576	-57.4766
7750.000000	95.932	-58.4233
7880.000000	98.380	-65.6599
8000.000000	100.276	-81.2731
8120.000000	100.518	-102.7710
8250.000000	98.910	-120.0207
8380.000000	96.900	-127.4577
8500.000000	95.310	-128.8518
8620.000000	94.076	-127.5538
8750.000000	93.090	-124.5181
8850.000000	92.543	-121.6439
9000.000000	92.077	-116.8801
9120.000000	91.988	-113.1464
9250.000000	92.165	-109.6000
9380.000000	92.640	-106.9991
9500.000000	93.371	-106.2754
9620.000000	94.363	-108.1669
9750.000000	95.584	-115.3639
9880.000000	96.356	-130.0493
10000.000000	95.766	-147.3775
10150.000000	93.349	-163.1795
10300.000000	90.489	-169.3737
10440.000000	88.058	-169.2661
10600.000000	85.692	-165.9029
10750.000000	83.839	-160.8570
10900.000000	82.257	-154.5551
11060.000000	80.819	-147.0077
11200.000000	79.764	-140.3423
11380.000000	78.669	-130.9130
11500.000000	78.003	-124.8335
11720.000000	77.125	-113.1165
11800.000000	76.920	-108.8535
12060.000000	76.393	-94.9222
12200.000000	76.230	-88.0915
12410.000000	76.375	-77.0813
12500.000000	76.485	-72.4510
12650.000000	76.830	-65.2133
12800.000000	77.386	-58.5097
13150.000000	79.505	-45.4617
13200.000000	79.892	-44.2777
13400.000000	81.893	-42.6611
13600.000000	84.250	-49.0147
13800.000000	85.715	-68.2404
14000.000000	84.438	-88.9753
14300.000000	80.780	-98.5258
14500.000000	78.746	-96.4738
14750.000000	76.889	-89.2692
15000.000000	75.737	-80.1780
15250.000000	75.215	-71.9117
15500.000000	75.341	-64.2981
15750.000000	76.215	-62.7731
16000.000000	77.141	-80.1495
16250.000000	71.752	-115.5479
16500.000000	55.987	-55.2090
16750.000000	68.462	14.5855
17000.000000	75.577	8.7194
17250.000000	79.533	-29.9921
17500.000000	76.536	-61.3755
17750.000000	73.444	-65.6439
18000.000000	71.704	-63.1663
18250.000000	70.796	-61.8315
18500.000000	70.876	-65.4199
18750.000000	70.097	-81.6593
19000.000000	66.911	-98.3358
19250.000000	62.343	-101.7426
19500.000000	58.405	-95.3494
19750.000000	54.293	-83.1378
