* Measurement data measured by REW V5.20.4
* Source: Microphone (2- KM-HIFI-384KHZ), MICROPHONE (Master Volume), L, volume: 0.250
* Format: 256k Log Swept Sine, 1 sweep at -6.0 dBFS with no timing reference
* Dated: 1 Mar, 2022 10:35:51 PM
* REW Settings:
*  C-weighting compensation: Off
*  Target level: 75.0 dB
* Note: 
* Measurement: Ola L
* Smoothing: None
* Frequency Step: 1/48 octave
* Start Frequency: 20.000 Hz
*
* Freq(Hz)	SPL(dB)	Phase(degrees)
20.000000	83.276	-126.6680
20.299999	83.378	-127.1188
20.600000	83.469	-127.5964
20.900000	83.549	-128.0605
21.200001	83.620	-128.4936
21.400000	83.667	-128.7553
21.799999	83.758	-129.2117
22.000000	83.804	-129.4135
22.400000	83.902	-129.7965
22.700001	83.982	-130.0756
23.000000	84.066	-130.3759
23.299999	84.153	-130.7299
23.600000	84.238	-131.1436
24.000000	84.338	-131.7779
24.299999	84.399	-132.2770
24.700001	84.457	-132.8786
25.000000	84.491	-133.2196
25.400000	84.539	-133.5060
25.799999	84.609	-133.6648
26.200001	84.707	-133.8583
26.500000	84.790	-134.1071
26.900000	84.893	-134.5881
27.200001	84.953	-135.0157
27.600000	85.011	-135.5663
28.000000	85.053	-135.9829
28.500000	85.116	-136.3170
29.000000	85.206	-136.6270
29.500000	85.308	-137.1021
30.000000	85.391	-137.7068
30.400000	85.439	-138.1631
30.700001	85.469	-138.4313
31.100000	85.515	-138.6982
31.500000	85.577	-138.9400
32.000000	85.668	-139.3472
32.500000	85.749	-139.9164
33.000000	85.802	-140.4973
33.500000	85.834	-140.9308
34.000000	85.877	-141.2042
34.500000	85.946	-141.4796
35.000000	86.021	-141.8702
35.500000	86.081	-142.3403
36.000000	86.125	-142.7569
36.500000	86.165	-143.0676
37.000000	86.216	-143.3322
37.500000	86.274	-143.6416
38.200001	86.344	-144.1475
38.700001	86.380	-144.4946
39.500000	86.435	-144.9820
40.000000	86.471	-145.2779
40.599998	86.512	-145.6311
41.200001	86.555	-145.9744
41.799999	86.602	-146.3484
42.500000	86.649	-146.8417
43.099998	86.680	-147.2310
43.700001	86.714	-147.5531
44.400002	86.764	-147.9448
45.000000	86.802	-148.3236
45.500000	86.827	-148.5913
46.200001	86.873	-148.8647
46.799999	86.928	-149.1482
47.500000	86.979	-149.5703
48.200001	87.018	-149.8781
48.700001	87.062	-150.0667
49.400002	87.132	-150.5455
50.000000	87.156	-151.0932
50.799999	87.143	-151.5390
51.500000	87.158	-151.6921
52.200001	87.191	-151.9519
53.000000	87.214	-152.2886
53.799999	87.243	-152.5282
54.500000	87.277	-152.7912
55.200001	87.307	-153.0754
56.000000	87.345	-153.3879
57.000000	87.388	-153.8396
58.000000	87.427	-154.2244
59.000000	87.462	-154.6791
60.000000	87.466	-155.0500
60.799999	87.482	-155.2378
61.500000	87.501	-155.4489
62.200001	87.513	-155.6562
63.000000	87.532	-155.8515
64.000000	87.560	-156.1596
65.000000	87.587	-156.4066
66.000000	87.641	-156.7493
67.000000	87.660	-157.2946
68.000000	87.661	-157.4868
69.000000	87.707	-157.7502
70.000000	87.716	-158.1771
71.000000	87.720	-158.3560
72.000000	87.744	-158.5958
73.000000	87.758	-158.8828
74.000000	87.768	-159.1305
75.000000	87.787	-159.3299
76.199997	87.820	-159.7203
77.500000	87.810	-160.1196
78.800003	87.823	-160.2248
80.000000	87.848	-160.5067
81.199997	87.853	-160.7382
82.500000	87.875	-160.9581
83.800003	87.894	-161.2545
85.000000	87.907	-161.5186
86.199997	87.917	-161.7450
87.500000	87.932	-161.9891
88.500000	87.940	-162.1768
90.000000	87.953	-162.4268
91.199997	87.962	-162.6608
92.500000	87.966	-162.8626
93.800003	87.981	-163.0408
95.000000	87.993	-163.2454
96.199997	88.003	-163.4629
97.500000	88.003	-163.6285
98.800003	88.025	-163.8256
100.000000	88.018	-164.0423
101.500000	88.028	-164.2003
103.000000	88.047	-164.3689
104.400002	88.045	-164.6418
106.000000	88.066	-164.7527
107.500000	88.064	-164.9629
109.000000	88.081	-165.1680
110.599998	88.080	-165.3889
112.000000	88.078	-165.5855
113.800003	88.081	-165.7635
115.000000	88.085	-165.7788
117.199997	88.115	-166.1245
118.000000	88.115	-166.2112
120.599998	88.113	-166.4236
122.000000	88.113	-166.5944
124.099998	88.115	-166.8136
125.000000	88.118	-166.9166
126.500000	88.119	-167.0478
128.000000	88.130	-167.1661
131.500000	88.136	-167.4790
132.000000	88.139	-167.5321
134.000000	88.136	-167.7514
136.000000	88.140	-167.9155
138.000000	88.144	-168.0307
140.000000	88.138	-168.1987
143.000000	88.145	-168.4178
145.000000	88.151	-168.5947
147.500000	88.154	-168.6942
150.000000	88.194	-168.4359
152.500000	88.141	-168.9646
155.000000	88.135	-168.9813
157.500000	88.128	-169.2214
160.000000	88.117	-169.4008
162.500000	88.113	-169.4990
165.000000	88.101	-169.5467
167.500000	88.095	-169.7139
170.000000	88.089	-169.7890
172.500000	88.081	-169.8944
175.000000	88.055	-170.0500
177.500000	88.093	-170.5963
180.000000	88.033	-170.1688
182.500000	88.076	-170.3220
185.000000	88.091	-170.1270
187.500000	88.040	-170.2489
190.000000	88.022	-170.5037
192.500000	88.049	-170.3951
195.000000	88.043	-170.7760
197.500000	88.021	-170.6892
200.000000	88.034	-170.7520
203.000000	88.039	-170.9226
206.000000	88.034	-170.9357
209.000000	88.033	-171.0279
212.000000	88.027	-171.1457
214.000000	88.031	-171.0155
218.000000	88.019	-171.1404
220.000000	88.008	-171.1106
224.000000	87.987	-171.1578
227.000000	87.974	-171.3171
230.000000	88.032	-171.4479
233.000000	87.972	-171.4692
236.000000	87.967	-171.2969
240.000000	87.959	-171.3552
243.000000	87.943	-171.4345
247.000000	87.962	-171.3225
250.000000	87.972	-171.5383
254.000000	87.952	-171.2915
258.000000	87.929	-171.1144
262.000000	87.889	-171.3086
265.000000	87.906	-171.2572
269.000000	87.895	-171.2545
272.000000	87.869	-171.2842
276.000000	87.878	-171.2013
280.000000	87.870	-171.0385
285.000000	87.824	-171.0773
290.000000	87.826	-171.0845
295.000000	87.806	-171.0963
300.000000	87.804	-170.8678
304.000000	87.780	-170.8776
307.000000	87.776	-170.8930
311.000000	87.738	-170.6834
315.000000	87.737	-170.7788
320.000000	87.747	-170.6110
325.000000	87.709	-170.6358
330.000000	87.691	-170.5500
335.000000	87.672	-170.4014
340.000000	87.654	-170.2096
345.000000	87.633	-170.1252
350.000000	87.626	-169.9407
355.000000	87.614	-169.8698
360.000000	87.589	-169.8761
365.000000	87.584	-169.7653
370.000000	87.572	-169.6122
375.000000	87.563	-169.4016
382.000000	87.544	-169.2543
387.000000	87.520	-169.0937
395.000000	87.492	-168.8417
400.000000	87.475	-168.7132
406.000000	87.463	-168.5414
412.000000	87.442	-168.3265
418.000000	87.428	-168.1310
425.000000	87.403	-167.8652
431.000000	87.383	-167.7329
437.000000	87.366	-167.4937
444.000000	87.341	-167.2590
450.000000	87.351	-166.9235
455.000000	87.319	-166.8488
462.000000	87.286	-166.6142
468.000000	87.266	-166.3621
475.000000	87.242	-166.0978
482.000000	87.219	-165.6950
487.000000	87.211	-165.6121
494.000000	87.203	-165.1704
500.000000	87.177	-164.9935
508.000000	87.157	-164.5964
515.000000	87.134	-164.2110
522.000000	87.111	-163.7976
530.000000	87.100	-163.4080
538.000000	87.090	-162.9880
545.000000	87.081	-162.5661
552.000000	87.077	-162.1830
560.000000	87.071	-161.7682
570.000000	87.068	-161.1891
580.000000	87.068	-160.6890
590.000000	87.066	-160.1861
600.000000	87.064	-159.6406
608.000000	87.053	-159.2554
615.000000	87.054	-158.8104
622.000000	87.043	-158.4726
630.000000	87.037	-158.0554
640.000000	87.034	-157.5048
650.000000	87.021	-156.8560
660.000000	87.028	-156.3996
670.000000	87.018	-155.8372
680.000000	87.016	-155.3020
690.000000	87.010	-154.7725
700.000000	86.999	-154.1705
710.000000	86.985	-153.6148
720.000000	86.963	-153.0172
730.000000	86.932	-152.3706
740.000000	86.909	-151.7436
750.000000	86.899	-150.7640
762.000000	86.897	-150.2221
775.000000	86.706	-149.7772
788.000000	86.394	-146.4794
800.000000	86.713	-142.5240
812.000000	87.126	-141.6982
825.000000	87.362	-141.5297
838.000000	87.496	-141.2102
850.000000	87.592	-140.9418
862.000000	87.673	-140.4297
875.000000	87.758	-139.8743
885.000000	87.833	-139.4748
900.000000	87.931	-138.7165
912.000000	88.018	-138.1902
925.000000	88.114	-137.6107
938.000000	88.214	-137.0879
950.000000	88.309	-136.4449
962.000000	88.409	-136.0211
975.000000	88.529	-135.5313
988.000000	88.648	-135.1070
1000.000000	88.760	-134.7257
1015.000000	88.898	-134.2499
1030.000000	89.035	-133.8435
1044.000000	89.167	-133.5192
1060.000000	89.312	-133.1788
1075.000000	89.451	-132.9235
1090.000000	89.578	-132.6852
1106.000000	89.701	-132.4833
1120.000000	89.810	-132.3394
1138.000000	89.942	-132.1962
1150.000000	90.021	-132.1337
1172.000000	90.182	-132.0019
1180.000000	90.237	-131.9848
1206.000000	90.404	-131.9294
1220.000000	90.512	-131.9428
1241.000000	90.683	-131.9582
1250.000000	90.750	-131.9510
1265.000000	90.876	-131.9532
1280.000000	90.987	-131.9831
1315.000000	91.240	-132.0146
1320.000000	91.277	-131.9906
1340.000000	91.419	-132.0695
1360.000000	91.600	-132.0684
1380.000000	91.741	-132.1017
1400.000000	91.876	-132.1490
1430.000000	92.077	-132.1872
1450.000000	92.211	-132.1708
1475.000000	92.374	-132.2353
1500.000000	92.535	-132.2504
1525.000000	92.692	-132.3183
1550.000000	92.826	-132.3027
1575.000000	92.956	-132.3498
1600.000000	93.090	-132.4132
1625.000000	93.219	-132.4707
1650.000000	93.345	-132.5479
1675.000000	93.482	-132.6291
1700.000000	93.617	-132.7197
1725.000000	93.750	-132.8230
1750.000000	93.889	-132.9772
1775.000000	94.026	-133.1126
1800.000000	94.165	-133.2955
1825.000000	94.306	-133.5035
1850.000000	94.449	-133.7218
1875.000000	94.586	-134.0097
1900.000000	94.734	-134.3256
1925.000000	94.871	-134.6657
1950.000000	95.013	-135.0535
1975.000000	95.151	-135.4874
2000.000000	95.290	-135.9748
2030.000000	95.456	-136.6272
2060.000000	95.622	-137.3440
2090.000000	95.782	-138.1644
2120.000000	95.937	-139.0687
2140.000000	96.041	-139.7488
2180.000000	96.224	-141.2414
2200.000000	96.309	-142.0514
2240.000000	96.455	-143.8486
2270.000000	96.538	-145.2956
2300.000000	96.600	-146.8101
2330.000000	96.636	-148.3391
2360.000000	96.640	-149.9016
2400.000000	96.604	-151.9050
2430.000000	96.546	-153.3375
2470.000000	96.440	-155.0734
2500.000000	96.340	-156.2503
2540.000000	96.188	-157.5919
2580.000000	96.026	-158.7461
2620.000000	95.851	-159.6958
2650.000000	95.721	-160.2893
2690.000000	95.550	-160.9389
2720.000000	95.421	-161.3424
2760.000000	95.255	-161.7846
2800.000000	95.091	-162.0998
2850.000000	94.893	-162.3868
2900.000000	94.705	-162.5426
2950.000000	94.514	-162.6048
3000.000000	94.338	-162.5789
3040.000000	94.200	-162.4836
3070.000000	94.093	-162.3872
3110.000000	93.963	-162.2093
3150.000000	93.833	-161.9944
3200.000000	93.670	-161.6513
3250.000000	93.523	-161.2707
3300.000000	93.376	-160.8008
3350.000000	93.232	-160.2984
3400.000000	93.096	-159.7212
3450.000000	92.975	-159.1052
3500.000000	92.855	-158.5011
3550.000000	92.743	-157.8070
3600.000000	92.638	-157.1001
3650.000000	92.534	-156.3399
3700.000000	92.446	-155.5526
3750.000000	92.363	-154.7264
3820.000000	92.246	-153.5775
3870.000000	92.175	-152.6825
3950.000000	92.076	-151.2728
4000.000000	92.025	-150.3851
4060.000000	91.971	-149.2751
4120.000000	91.924	-148.1644
4180.000000	91.881	-147.0572
4250.000000	91.845	-145.7686
4310.000000	91.836	-144.6419
4370.000000	91.831	-143.5018
4440.000000	91.835	-142.2455
4500.000000	91.849	-141.1657
4550.000000	91.864	-140.2822
4620.000000	91.900	-139.0612
4680.000000	91.939	-138.0198
4750.000000	91.992	-136.8954
4820.000000	92.062	-135.7676
4870.000000	92.109	-135.0199
4940.000000	92.180	-134.0051
5000.000000	92.248	-133.1597
5080.000000	92.349	-132.1654
5150.000000	92.442	-131.3861
5220.000000	92.542	-130.6373
5300.000000	92.659	-129.9204
5380.000000	92.775	-129.3342
5450.000000	92.877	-128.9123
5520.000000	92.968	-128.5790
5600.000000	93.061	-128.2970
5700.000000	93.170	-128.1405
5800.000000	93.252	-128.1477
5900.000000	93.232	-128.2805
6000.000000	93.493	-126.7075
6080.000000	93.547	-127.2934
6150.000000	93.613	-127.7926
6220.000000	93.637	-128.2602
6300.000000	93.657	-128.6588
6400.000000	93.658	-129.1272
6500.000000	93.641	-129.5586
6600.000000	93.613	-129.9281
6700.000000	93.577	-130.2374
6800.000000	93.532	-130.5359
6900.000000	93.524	-130.7263
7000.000000	93.554	-130.9419
7100.000000	93.591	-131.1176
7200.000000	93.635	-131.3443
7300.000000	93.690	-131.6512
7400.000000	93.734	-131.9073
7500.000000	93.795	-132.2729
7620.000000	93.901	-132.7927
7750.000000	94.165	-133.7776
7880.000000	94.276	-135.6580
8000.000000	94.362	-138.7639
8120.000000	94.263	-143.3049
8250.000000	93.769	-149.1588
8380.000000	92.795	-154.0058
8500.000000	91.609	-156.0074
8620.000000	90.371	-155.0149
8750.000000	89.209	-151.0618
8850.000000	88.582	-146.5476
9000.000000	88.201	-139.4470
9120.000000	88.331	-135.2199
9250.000000	88.649	-133.3606
9380.000000	88.891	-134.3713
9500.000000	88.861	-137.1371
9620.000000	88.491	-140.2596
9750.000000	87.826	-142.9292
9880.000000	86.981	-144.2580
10000.000000	86.125	-144.3993
10150.000000	85.049	-143.2452
10300.000000	84.002	-140.5266
10440.000000	83.103	-137.2051
10600.000000	82.268	-133.0137
10750.000000	81.567	-129.0182
10900.000000	80.888	-125.1403
11060.000000	80.114	-121.1907
11200.000000	79.330	-116.5341
11380.000000	78.453	-108.8880
11500.000000	78.033	-102.9365
11720.000000	77.588	-92.7302
11800.000000	77.500	-89.4059
12060.000000	77.263	-77.9685
12200.000000	77.158	-72.9896
12410.000000	77.275	-64.1825
12500.000000	77.350	-60.6568
12650.000000	77.468	-55.0580
12800.000000	77.682	-49.3627
13150.000000	78.429	-36.5675
13200.000000	78.563	-34.8717
13400.000000	79.197	-28.1075
13600.000000	80.022	-21.6651
13800.000000	81.097	-15.9104
14000.000000	82.403	-11.3672
14300.000000	84.984	-7.2787
14500.000000	87.276	-9.3081
14750.000000	90.366	-22.8862
15000.000000	91.399	-53.5903
15250.000000	88.878	-76.9960
15500.000000	85.850	-84.3826
15750.000000	83.410	-84.5214
16000.000000	81.480	-81.6597
16250.000000	79.846	-78.1090
16500.000000	78.531	-74.1031
16750.000000	77.339	-68.9162
17000.000000	76.227	-64.5671
17250.000000	75.360	-59.2361
17500.000000	74.616	-56.2655
17750.000000	73.150	-54.6218
18000.000000	71.521	-47.0639
18250.000000	70.852	-36.4535
18500.000000	70.375	-30.6932
18750.000000	70.021	-29.3274
19000.000000	68.997	-27.2419
19250.000000	67.429	-24.3636
19500.000000	65.795	-19.7479
19750.000000	64.457	-10.1028
