* Measurement data measured by REW V5.20.4
* Source: Headset (USB-C to 3.5mm Headphone Jack Adapter), MICROPHONE (Master Volume), R, volume: 0.540
* Format: 256k Log Swept Sine, 1 sweep at -6.0 dBFS with no timing reference
* Dated: 13 Aug, 2022 11:07:08 PM
* REW Settings:
*  C-weighting compensation: Off
*  Target level: 75.0 dB
* Note: 
* Measurement: CRA+ L
* Smoothing: None
* Frequency Step: 1/48 octave
* Start Frequency: 20.300 Hz
*
* Freq(Hz)	SPL(dB)	Phase(degrees)
20.299999	90.348	-120.5632
20.600000	90.443	-121.4553
20.900000	90.503	-122.3087
21.200001	90.547	-123.0522
21.400000	90.579	-123.4554
21.799999	90.661	-124.0682
22.000000	90.714	-124.3058
22.400000	90.839	-124.7252
22.700001	90.936	-125.0316
23.000000	91.025	-125.3439
23.299999	91.104	-125.6725
23.600000	91.174	-126.0486
24.000000	91.262	-126.6974
24.299999	91.325	-127.3449
24.700001	91.410	-128.4268
25.000000	91.476	-129.3478
25.400000	91.577	-130.6149
25.799999	91.696	-131.8272
26.200001	91.824	-132.9334
26.500000	91.908	-133.6611
26.900000	91.983	-134.4143
27.200001	92.005	-134.7394
27.600000	92.009	-134.8002
28.000000	92.020	-134.5538
28.500000	92.083	-134.3027
29.000000	92.174	-134.6242
29.500000	92.235	-135.4481
30.000000	92.260	-136.2688
30.400000	92.291	-136.7457
30.700001	92.332	-137.0717
31.100000	92.398	-137.6387
31.500000	92.444	-138.3986
32.000000	92.438	-139.3463
32.500000	92.395	-139.8309
33.000000	92.412	-139.7932
33.500000	92.527	-139.7086
34.000000	92.684	-139.9825
34.500000	92.806	-140.4940
35.000000	92.870	-140.9403
35.500000	92.902	-141.2736
36.000000	92.915	-141.6900
36.500000	92.903	-142.2772
37.000000	92.872	-142.9072
37.500000	92.854	-143.4612
38.200001	92.899	-144.2064
38.700001	92.962	-144.7964
39.500000	93.063	-145.6042
40.000000	93.116	-145.9282
40.599998	93.173	-146.2576
41.200001	93.216	-146.7110
41.799999	93.239	-147.3189
42.500000	93.250	-148.0118
43.099998	93.275	-148.3956
43.700001	93.322	-148.6630
44.400002	93.368	-149.0529
45.000000	93.372	-149.4263
45.500000	93.376	-149.7141
46.200001	93.423	-150.2453
46.799999	93.480	-150.8598
47.500000	93.522	-151.3777
48.200001	93.546	-151.6299
48.700001	93.540	-151.8907
49.400002	93.477	-152.3706
50.000000	93.437	-152.6735
50.799999	93.511	-153.3198
51.500000	93.596	-154.2943
52.200001	93.614	-154.7895
53.000000	93.656	-154.5486
53.799999	93.720	-154.6368
54.500000	93.713	-155.0261
55.200001	93.711	-155.3370
56.000000	93.767	-155.9004
57.000000	93.805	-156.7466
58.000000	93.792	-156.9996
59.000000	93.795	-157.0959
60.000000	93.840	-157.5903
60.799999	93.881	-158.2255
61.500000	93.902	-158.7120
62.200001	93.908	-159.1066
63.000000	93.900	-159.4756
64.000000	93.908	-159.9184
65.000000	93.898	-160.3836
66.000000	93.897	-160.3303
67.000000	93.960	-160.6796
68.000000	93.943	-161.4166
69.000000	93.963	-161.8633
70.000000	94.004	-162.4343
71.000000	94.018	-162.6081
72.000000	94.000	-162.9080
73.000000	93.973	-162.8883
74.000000	94.077	-163.2516
75.000000	94.051	-163.9739
76.199997	94.009	-163.8713
77.500000	94.027	-164.5131
78.800003	94.063	-164.5805
80.000000	94.070	-164.8371
81.199997	94.086	-165.3239
82.500000	94.072	-165.7987
83.800003	94.106	-165.9611
85.000000	94.084	-166.4115
86.199997	94.075	-166.6066
87.500000	94.100	-166.9659
88.500000	94.111	-167.2954
90.000000	94.119	-167.6751
91.199997	94.117	-168.0074
92.500000	94.121	-168.2586
93.800003	94.121	-168.5447
95.000000	94.121	-168.7839
96.199997	94.124	-169.1185
97.500000	94.113	-169.4075
98.800003	94.115	-169.6464
100.000000	94.109	-170.0433
101.500000	94.128	-170.2099
103.000000	94.119	-170.4445
104.400002	94.126	-170.9067
106.000000	94.100	-171.1130
107.500000	94.102	-171.3929
109.000000	94.110	-171.5594
110.599998	94.096	-171.9198
112.000000	94.092	-172.1717
113.800003	94.072	-172.4045
115.000000	94.079	-172.6805
117.199997	94.071	-172.9424
118.000000	94.061	-173.1111
120.599998	94.058	-173.5249
122.000000	94.038	-173.7035
124.099998	94.036	-173.9897
125.000000	94.016	-174.1112
126.500000	94.011	-174.3426
128.000000	94.007	-174.4982
131.500000	93.988	-174.9891
132.000000	93.987	-175.0711
134.000000	93.979	-175.2890
136.000000	93.971	-175.4995
138.000000	93.948	-175.7840
140.000000	93.937	-175.9529
143.000000	93.921	-176.2137
145.000000	93.916	-176.4068
147.500000	93.906	-176.8103
150.000000	93.940	-176.0463
152.500000	93.848	-177.2804
155.000000	93.823	-177.3100
157.500000	93.810	-177.6788
160.000000	93.784	-177.8716
162.500000	93.756	-178.0740
165.000000	93.734	-178.2637
167.500000	93.706	-178.4328
170.000000	93.679	-178.6187
172.500000	93.644	-178.8614
175.000000	93.656	-178.8768
177.500000	93.607	-179.2425
180.000000	93.610	-179.3159
182.500000	93.584	-179.3552
185.000000	93.543	-179.4701
187.500000	93.561	-179.7058
190.000000	93.500	-179.8680
192.500000	93.496	-179.9051
195.000000	93.482	179.9630
197.500000	93.454	179.8506
200.000000	93.440	179.8317
203.000000	93.413	179.6310
206.000000	93.397	179.4668
209.000000	93.365	179.3464
212.000000	93.356	179.1112
214.000000	93.321	179.1479
218.000000	93.310	179.1422
220.000000	93.255	179.0361
224.000000	93.246	178.8419
227.000000	93.227	178.5751
230.000000	93.178	178.7001
233.000000	93.167	178.7142
236.000000	93.114	178.3112
240.000000	93.086	178.7258
243.000000	93.059	178.6172
247.000000	93.032	178.4379
250.000000	92.960	178.2282
254.000000	92.984	178.2224
258.000000	92.932	178.2247
262.000000	92.912	178.4432
265.000000	92.832	178.2449
269.000000	92.855	178.2048
272.000000	92.837	178.2199
276.000000	92.766	178.4756
280.000000	92.732	178.3323
285.000000	92.690	178.4842
290.000000	92.648	178.5829
295.000000	92.628	178.5340
300.000000	92.573	178.7653
304.000000	92.557	178.6847
307.000000	92.544	178.7271
311.000000	92.521	178.9778
315.000000	92.469	178.8180
320.000000	92.438	178.9326
325.000000	92.391	179.0066
330.000000	92.361	179.0290
335.000000	92.313	179.0573
340.000000	92.272	179.2828
345.000000	92.246	179.3166
350.000000	92.229	179.1748
355.000000	92.175	179.5761
360.000000	92.138	179.7350
365.000000	92.096	179.8892
370.000000	92.058	-179.9713
375.000000	92.030	-179.7938
382.000000	91.984	-179.5966
387.000000	91.945	-179.3728
395.000000	91.893	-179.0840
400.000000	91.899	-179.1306
406.000000	91.819	-178.6606
412.000000	91.781	-178.4350
418.000000	91.747	-178.1396
425.000000	91.711	-177.8541
431.000000	91.678	-177.6262
437.000000	91.642	-177.3627
444.000000	91.612	-177.0829
450.000000	91.551	-176.4957
455.000000	91.541	-176.5582
462.000000	91.510	-176.2654
468.000000	91.474	-176.0325
475.000000	91.435	-175.6269
482.000000	91.403	-175.3181
487.000000	91.371	-175.0418
494.000000	91.345	-174.7114
500.000000	91.279	-174.4061
508.000000	91.283	-173.9374
515.000000	91.261	-173.5703
522.000000	91.232	-173.1701
530.000000	91.206	-172.7400
538.000000	91.171	-172.2565
545.000000	91.157	-171.8303
552.000000	91.129	-171.4412
560.000000	91.113	-170.8843
570.000000	91.085	-170.3114
580.000000	91.056	-169.7100
590.000000	91.039	-169.0278
600.000000	91.041	-168.0628
608.000000	91.007	-167.7951
615.000000	90.994	-167.2602
622.000000	90.983	-166.7761
630.000000	90.980	-166.2438
640.000000	90.977	-165.4237
650.000000	90.982	-164.4011
660.000000	90.997	-163.8082
670.000000	91.026	-162.9072
680.000000	91.108	-162.0206
690.000000	91.259	-161.4418
700.000000	91.483	-161.9456
710.000000	91.429	-163.1382
720.000000	91.227	-163.5290
730.000000	91.061	-162.8429
740.000000	90.949	-161.9556
750.000000	90.847	-160.7903
762.000000	90.793	-159.2431
775.000000	90.884	-157.7070
788.000000	90.934	-156.7829
800.000000	90.972	-155.6530
812.000000	90.995	-155.1040
825.000000	91.037	-154.1530
838.000000	91.084	-153.2257
850.000000	91.118	-152.2773
862.000000	91.178	-151.5548
875.000000	91.247	-150.6722
885.000000	91.299	-150.0386
900.000000	91.417	-148.9994
912.000000	91.455	-148.2922
925.000000	91.537	-147.5734
938.000000	91.630	-146.8793
950.000000	91.708	-146.0323
962.000000	91.802	-145.5988
975.000000	91.906	-144.9862
988.000000	92.007	-144.3851
1000.000000	92.080	-144.0624
1015.000000	92.225	-143.2832
1030.000000	92.353	-142.7794
1044.000000	92.473	-142.3203
1060.000000	92.602	-141.8512
1075.000000	92.728	-141.4464
1090.000000	92.848	-141.1040
1106.000000	92.956	-140.7805
1120.000000	93.054	-140.5107
1138.000000	93.180	-140.2058
1150.000000	93.266	-139.9951
1172.000000	93.410	-139.7613
1180.000000	93.460	-139.6528
1206.000000	93.614	-139.4186
1220.000000	93.718	-139.2729
1241.000000	93.888	-139.1022
1250.000000	93.959	-139.1531
1265.000000	94.073	-138.9728
1280.000000	94.184	-138.8504
1315.000000	94.443	-138.6428
1320.000000	94.477	-138.6278
1340.000000	94.612	-138.5108
1360.000000	94.802	-138.4092
1380.000000	94.948	-138.3206
1400.000000	95.087	-138.2976
1430.000000	95.298	-138.1022
1450.000000	95.451	-138.1034
1475.000000	95.617	-137.9588
1500.000000	95.791	-137.9249
1525.000000	95.966	-137.7851
1550.000000	96.124	-137.7523
1575.000000	96.264	-137.7165
1600.000000	96.412	-137.7137
1625.000000	96.565	-137.7173
1650.000000	96.724	-137.8740
1675.000000	96.874	-137.8167
1700.000000	97.030	-137.9207
1725.000000	97.192	-138.0848
1750.000000	97.361	-138.1879
1775.000000	97.516	-138.5123
1800.000000	97.680	-138.8094
1825.000000	97.845	-139.1557
1850.000000	98.013	-139.5374
1875.000000	98.168	-140.0318
1900.000000	98.321	-140.5859
1925.000000	98.481	-141.1746
1950.000000	98.626	-141.7986
1975.000000	98.766	-142.5937
2000.000000	98.902	-143.3681
2030.000000	99.051	-144.4258
2060.000000	99.190	-145.5392
2090.000000	99.304	-146.7326
2120.000000	99.408	-147.9861
2140.000000	99.467	-148.8322
2180.000000	99.555	-150.5898
2200.000000	99.581	-151.4507
2240.000000	99.624	-153.2302
2270.000000	99.631	-154.5064
2300.000000	99.622	-155.8091
2330.000000	99.593	-156.9734
2360.000000	99.553	-158.1173
2400.000000	99.480	-159.5963
2430.000000	99.417	-160.5340
2470.000000	99.316	-161.7518
2500.000000	99.240	-162.5638
2540.000000	99.118	-163.5990
2580.000000	98.990	-164.4832
2620.000000	98.859	-165.2712
2650.000000	98.755	-165.7872
2690.000000	98.619	-166.3949
2720.000000	98.514	-166.7819
2760.000000	98.374	-167.2247
2800.000000	98.228	-167.5526
2850.000000	98.061	-167.9088
2900.000000	97.883	-168.1828
2950.000000	97.707	-168.2264
3000.000000	97.541	-168.2189
3040.000000	97.414	-168.1811
3070.000000	97.319	-168.0648
3110.000000	97.193	-167.8863
3150.000000	97.065	-167.6473
3200.000000	96.929	-167.2147
3250.000000	96.813	-166.7569
3300.000000	96.698	-166.2053
3350.000000	96.615	-165.6588
3400.000000	96.533	-165.2746
3450.000000	96.449	-164.8105
3500.000000	96.361	-164.4475
3550.000000	96.280	-163.9720
3600.000000	96.191	-163.4473
3650.000000	96.105	-162.8392
3700.000000	96.039	-162.2031
3750.000000	95.974	-161.5520
3820.000000	95.906	-160.5623
3870.000000	95.864	-159.8670
3950.000000	95.815	-158.7731
4000.000000	95.791	-158.0765
4060.000000	95.779	-157.2252
4120.000000	95.772	-156.4353
4180.000000	95.775	-155.6461
4250.000000	95.791	-154.7534
4310.000000	95.814	-154.0254
4370.000000	95.847	-153.3196
4440.000000	95.897	-152.5390
4500.000000	95.943	-151.9179
4550.000000	95.992	-151.4140
4620.000000	96.062	-150.7419
4680.000000	96.137	-150.2839
4750.000000	96.230	-149.7621
4820.000000	96.329	-149.3863
4870.000000	96.397	-149.1461
4940.000000	96.493	-148.9133
5000.000000	96.581	-148.7693
5080.000000	96.692	-148.7368
5150.000000	96.794	-148.7840
5220.000000	96.893	-148.9868
5300.000000	97.004	-149.3729
5380.000000	97.096	-149.9368
5450.000000	97.163	-150.5325
5520.000000	97.197	-151.2325
5600.000000	97.214	-152.1125
5700.000000	97.196	-153.2826
5800.000000	97.128	-154.4664
5900.000000	96.960	-155.6300
6000.000000	96.667	-153.1467
6080.000000	97.121	-155.1936
6150.000000	97.033	-156.7602
6220.000000	96.926	-157.6385
6300.000000	96.811	-158.4293
6400.000000	96.671	-159.2311
6500.000000	96.529	-159.9059
6600.000000	96.393	-160.4380
6700.000000	96.267	-160.8366
6800.000000	96.165	-161.1667
6900.000000	96.118	-161.4743
7000.000000	96.134	-161.7614
7100.000000	96.177	-162.1608
7200.000000	96.255	-162.7115
7300.000000	96.351	-163.4671
7400.000000	96.454	-164.4818
7500.000000	96.575	-165.7978
7620.000000	96.735	-167.7858
7750.000000	97.002	-170.6941
7880.000000	97.048	-174.6271
8000.000000	97.003	-179.4552
8120.000000	96.741	174.5663
8250.000000	96.056	167.5518
8380.000000	94.891	162.0838
8500.000000	93.578	159.9638
8620.000000	92.301	160.9286
8750.000000	91.222	164.8714
8850.000000	90.710	168.8686
9000.000000	90.515	174.4062
9120.000000	90.746	176.7590
9250.000000	91.106	176.3244
9380.000000	91.266	173.0723
9500.000000	91.137	168.9658
9620.000000	90.696	164.8991
9750.000000	90.011	161.4405
9880.000000	89.222	159.3973
10000.000000	88.510	158.5518
10150.000000	87.668	158.2455
10300.000000	86.870	158.6714
10440.000000	86.163	159.4316
10600.000000	85.421	160.9653
10750.000000	84.772	162.9745
10900.000000	84.287	165.2315
11060.000000	83.861	168.0116
11200.000000	83.588	170.2478
11380.000000	83.290	172.8566
11500.000000	83.177	174.8083
11720.000000	83.057	178.0762
11800.000000	83.057	179.1898
12060.000000	83.172	-177.4910
12200.000000	83.425	-175.9426
12410.000000	83.904	-173.9429
12500.000000	84.179	-173.2896
12650.000000	84.726	-172.3104
12800.000000	85.402	-171.7210
13150.000000	87.657	-172.8832
13200.000000	88.067	-173.3048
13400.000000	90.041	-177.3074
13600.000000	92.614	174.0140
13800.000000	95.813	154.7614
14000.000000	97.722	116.4730
14300.000000	93.971	67.0695
14500.000000	90.998	52.5565
14750.000000	88.187	42.1502
15000.000000	86.205	34.8893
15250.000000	84.867	28.0917
15500.000000	83.985	20.3738
15750.000000	83.511	11.4810
16000.000000	83.399	0.2927
16250.000000	83.539	-14.1102
16500.000000	83.839	-33.2012
16750.000000	83.843	-57.7612
17000.000000	82.929	-84.4829
17250.000000	81.755	-105.5716
17500.000000	80.483	-133.6282
17750.000000	78.996	-155.4761
18000.000000	77.774	179.1718
18250.000000	76.156	153.4939
18500.000000	74.485	127.6280
18750.000000	72.873	102.5870
19000.000000	71.457	74.9279
19250.000000	70.001	45.3547
19500.000000	68.569	11.4889
19750.000000	66.661	-25.5718
