* Measurement data measured by REW V5.20.4
* Source: Microphone (2- KM-HIFI-384KHZ), MICROPHONE (Master Volume), L, volume: 0.250
* Format: 256k Log Swept Sine, 1 sweep at -6.0 dBFS with no timing reference
* Dated: 21 Mar, 2022 8:00:18 PM
* REW Settings:
*  C-weighting compensation: Off
*  Target level: 75.0 dB
* Note: 
* Measurement: S2 L
* Smoothing: None
* Frequency Step: 1/48 octave
* Start Frequency: 20.000 Hz
*
* Freq(Hz)	SPL(dB)	Phase(degrees)
20.000000	92.440	-103.7107
20.299999	92.546	-104.3401
20.600000	92.650	-104.9496
20.900000	92.752	-105.5410
21.200001	92.853	-106.1180
21.400000	92.920	-106.4970
21.799999	93.054	-107.2437
22.000000	93.120	-107.6124
22.400000	93.249	-108.3413
22.700001	93.344	-108.8808
23.000000	93.437	-109.4144
23.299999	93.528	-109.9421
23.600000	93.617	-110.4634
24.000000	93.733	-111.1460
24.299999	93.819	-111.6464
24.700001	93.931	-112.2969
25.000000	94.014	-112.7732
25.400000	94.124	-113.3978
25.799999	94.233	-114.0184
26.200001	94.340	-114.6421
26.500000	94.419	-115.1122
26.900000	94.518	-115.7369
27.200001	94.586	-116.1973
27.600000	94.675	-116.7910
28.000000	94.762	-117.3577
28.500000	94.871	-118.0396
29.000000	94.982	-118.7187
29.500000	95.090	-119.4104
30.000000	95.192	-120.1001
30.400000	95.273	-120.6318
30.700001	95.333	-121.0144
31.100000	95.413	-121.5090
31.500000	95.494	-121.9991
32.000000	95.595	-122.6228
32.500000	95.693	-123.2567
33.000000	95.785	-123.8802
33.500000	95.870	-124.4799
34.000000	95.955	-125.0599
34.500000	96.045	-125.6334
35.000000	96.133	-126.2057
35.500000	96.219	-126.7748
36.000000	96.303	-127.3380
36.500000	96.386	-127.8945
37.000000	96.466	-128.4430
37.500000	96.546	-128.9814
38.200001	96.653	-129.7217
38.700001	96.725	-130.2468
39.500000	96.836	-131.0771
40.000000	96.904	-131.5822
40.599998	96.985	-132.1769
41.200001	97.066	-132.7723
41.799999	97.145	-133.3735
42.500000	97.234	-134.0699
43.099998	97.309	-134.6498
43.700001	97.384	-135.2128
44.400002	97.473	-135.8666
45.000000	97.548	-136.4408
45.500000	97.607	-136.9177
46.200001	97.687	-137.5473
46.799999	97.760	-138.0638
47.500000	97.845	-138.7097
48.200001	97.919	-139.3687
48.700001	97.967	-139.7793
49.400002	98.046	-140.2936
50.000000	98.126	-140.8097
50.799999	98.217	-141.6312
51.500000	98.278	-142.2954
52.200001	98.344	-142.8837
53.000000	98.424	-143.5915
53.799999	98.497	-144.3027
54.500000	98.562	-144.8954
55.200001	98.629	-145.5084
56.000000	98.701	-146.2205
57.000000	98.790	-147.0898
58.000000	98.876	-147.9594
59.000000	98.961	-148.8098
60.000000	99.044	-149.6714
60.799999	99.111	-150.3936
61.500000	99.164	-151.0251
62.200001	99.216	-151.6124
63.000000	99.283	-152.2871
64.000000	99.360	-153.2198
65.000000	99.427	-154.0801
66.000000	99.503	-154.9652
67.000000	99.565	-155.8723
68.000000	99.631	-156.7231
69.000000	99.695	-157.6462
70.000000	99.750	-158.5471
71.000000	99.806	-159.4427
72.000000	99.858	-160.3527
73.000000	99.908	-161.2700
74.000000	99.954	-162.1861
75.000000	99.998	-163.1068
76.199997	100.047	-164.2136
77.500000	100.095	-165.4271
78.800003	100.135	-166.6218
80.000000	100.172	-167.7275
81.199997	100.198	-168.8417
82.500000	100.228	-170.0070
83.800003	100.249	-171.2347
85.000000	100.262	-172.3033
86.199997	100.270	-173.4344
87.500000	100.268	-174.5683
88.500000	100.272	-175.4631
90.000000	100.262	-176.7974
91.199997	100.254	-177.8505
92.500000	100.234	-178.9670
93.800003	100.216	179.9493
95.000000	100.192	178.9287
96.199997	100.163	177.9485
97.500000	100.126	176.8840
98.800003	100.085	175.8678
100.000000	100.045	174.9427
101.500000	99.991	173.8113
103.000000	99.932	172.7287
104.400002	99.874	171.7226
106.000000	99.803	170.6381
107.500000	99.731	169.6285
109.000000	99.656	168.6682
110.599998	99.569	167.6699
112.000000	99.495	166.8511
113.800003	99.391	165.8229
115.000000	99.326	165.1769
117.199997	99.198	163.9943
118.000000	99.149	163.5743
120.599998	98.993	162.3260
122.000000	98.908	161.6682
124.099998	98.779	160.7508
125.000000	98.723	160.3665
126.500000	98.629	159.7753
128.000000	98.537	159.1982
131.500000	98.323	157.9353
132.000000	98.291	157.7594
134.000000	98.167	157.1202
136.000000	98.041	156.5034
138.000000	97.920	155.9386
140.000000	97.797	155.4133
143.000000	97.613	154.6561
145.000000	97.494	154.1992
147.500000	97.350	153.6498
150.000000	97.225	153.2087
152.500000	97.053	152.7562
155.000000	96.899	152.3435
157.500000	96.749	151.9400
160.000000	96.606	151.5990
162.500000	96.461	151.2972
165.000000	96.320	151.0270
167.500000	96.180	150.7696
170.000000	96.049	150.5262
172.500000	95.920	150.3237
175.000000	95.794	150.1283
177.500000	95.666	149.9341
180.000000	95.539	149.7655
182.500000	95.412	149.6357
185.000000	95.285	149.5231
187.500000	95.149	149.4921
190.000000	95.019	149.4044
192.500000	94.884	149.4316
195.000000	94.743	149.5309
197.500000	94.604	149.7386
200.000000	94.466	150.1232
203.000000	94.324	150.9015
206.000000	94.264	151.9639
209.000000	94.323	152.7169
212.000000	94.407	152.6614
214.000000	94.424	152.2739
218.000000	94.359	151.4534
220.000000	94.301	151.1064
224.000000	94.158	150.6600
227.000000	94.048	150.4435
230.000000	93.938	150.3268
233.000000	93.827	150.2576
236.000000	93.720	150.1921
240.000000	93.582	150.2074
243.000000	93.484	150.2516
247.000000	93.355	150.3353
250.000000	93.278	150.5137
254.000000	93.140	150.4792
258.000000	93.032	150.6260
262.000000	92.915	150.7654
265.000000	92.827	150.9039
269.000000	92.720	151.0625
272.000000	92.636	151.2019
276.000000	92.527	151.3896
280.000000	92.421	151.5981
285.000000	92.289	151.8412
290.000000	92.162	152.1227
295.000000	92.037	152.4372
300.000000	91.913	152.7511
304.000000	91.816	153.0018
307.000000	91.745	153.1895
311.000000	91.644	153.4782
315.000000	91.548	153.7457
320.000000	91.428	154.1490
325.000000	91.306	154.5678
330.000000	91.184	155.0450
335.000000	91.070	155.6346
340.000000	90.962	156.4020
345.000000	90.900	157.2160
350.000000	90.904	157.8077
355.000000	90.881	158.1803
360.000000	90.840	158.3262
365.000000	90.775	158.4578
370.000000	90.699	158.6340
375.000000	90.623	158.9133
382.000000	90.508	159.3163
387.000000	90.429	159.6584
395.000000	90.305	160.2247
400.000000	90.226	160.6110
406.000000	90.144	161.0600
412.000000	90.057	161.5236
418.000000	89.977	162.0009
425.000000	89.881	162.5885
431.000000	89.807	163.0672
437.000000	89.730	163.5865
444.000000	89.643	164.1703
450.000000	89.598	164.7669
455.000000	89.511	165.1378
462.000000	89.437	165.7478
468.000000	89.373	166.2604
475.000000	89.298	166.8768
482.000000	89.230	167.4794
487.000000	89.182	167.9270
494.000000	89.123	168.5461
500.000000	89.070	169.0685
508.000000	89.002	169.7768
515.000000	88.951	170.4191
522.000000	88.896	171.0324
530.000000	88.836	171.7722
538.000000	88.779	172.4813
545.000000	88.735	173.1440
552.000000	88.684	173.7357
560.000000	88.637	174.4361
570.000000	88.585	175.3536
580.000000	88.529	176.2470
590.000000	88.480	177.1455
600.000000	88.434	178.0290
608.000000	88.401	178.7377
615.000000	88.369	179.3860
622.000000	88.340	179.9971
630.000000	88.311	-179.2952
640.000000	88.273	-178.4061
650.000000	88.266	-177.5339
660.000000	88.212	-176.6179
670.000000	88.188	-175.7879
680.000000	88.166	-174.9551
690.000000	88.145	-174.0538
700.000000	88.129	-173.2189
710.000000	88.109	-172.3300
720.000000	88.097	-171.5094
730.000000	88.090	-170.7073
740.000000	88.086	-169.8473
750.000000	88.085	-168.9039
762.000000	88.080	-168.0904
775.000000	88.078	-167.0697
788.000000	88.081	-166.0483
800.000000	88.094	-165.1307
812.000000	88.103	-164.2427
825.000000	88.121	-163.2754
838.000000	88.142	-162.3351
850.000000	88.179	-161.4674
862.000000	88.193	-160.6807
875.000000	88.225	-159.8317
885.000000	88.249	-159.1733
900.000000	88.294	-158.2798
912.000000	88.334	-157.5878
925.000000	88.372	-156.8167
938.000000	88.409	-156.0883
950.000000	88.467	-155.5222
962.000000	88.493	-154.8649
975.000000	88.547	-154.2162
988.000000	88.598	-153.6340
1000.000000	88.650	-153.1047
1015.000000	88.712	-152.4915
1030.000000	88.764	-151.8890
1044.000000	88.818	-151.3644
1060.000000	88.877	-150.7629
1075.000000	88.925	-150.2484
1090.000000	88.965	-149.7486
1106.000000	89.001	-149.2395
1120.000000	89.025	-148.7858
1138.000000	89.058	-148.2568
1150.000000	89.083	-147.9093
1172.000000	89.109	-147.2206
1180.000000	89.125	-146.9559
1206.000000	89.160	-146.1383
1220.000000	89.202	-145.6760
1241.000000	89.281	-145.0363
1250.000000	89.325	-144.7401
1265.000000	89.372	-144.3154
1280.000000	89.430	-143.8156
1315.000000	89.573	-142.7310
1320.000000	89.587	-142.5913
1340.000000	89.674	-141.9865
1360.000000	89.807	-141.5477
1380.000000	89.884	-141.3302
1400.000000	89.899	-140.9884
1430.000000	89.943	-139.6187
1450.000000	90.037	-138.7322
1475.000000	90.166	-138.0035
1500.000000	90.251	-137.3905
1525.000000	90.309	-136.5949
1550.000000	90.359	-135.6281
1575.000000	90.437	-134.6502
1600.000000	90.533	-133.7388
1625.000000	90.621	-132.8865
1650.000000	90.715	-132.0245
1675.000000	90.804	-131.2611
1700.000000	90.896	-130.4456
1725.000000	90.987	-129.6763
1750.000000	91.089	-128.8860
1775.000000	91.192	-128.1107
1800.000000	91.294	-127.3218
1825.000000	91.403	-126.5521
1850.000000	91.515	-125.7302
1875.000000	91.634	-125.0192
1900.000000	91.744	-124.3093
1925.000000	91.872	-123.5596
1950.000000	91.993	-122.8394
1975.000000	92.121	-122.1316
2000.000000	92.252	-121.4641
2030.000000	92.412	-120.6815
2060.000000	92.582	-119.9340
2090.000000	92.750	-119.2200
2120.000000	92.928	-118.5634
2140.000000	93.047	-118.1209
2180.000000	93.294	-117.3284
2200.000000	93.418	-116.9676
2240.000000	93.670	-116.2601
2270.000000	93.871	-115.8077
2300.000000	94.066	-115.4323
2330.000000	94.268	-115.0555
2360.000000	94.475	-114.7559
2400.000000	94.752	-114.4849
2430.000000	94.956	-114.2991
2470.000000	95.239	-114.1957
2500.000000	95.452	-114.2069
2540.000000	95.730	-114.2438
2580.000000	96.009	-114.5090
2620.000000	96.273	-114.7288
2650.000000	96.479	-115.0922
2690.000000	96.740	-115.5820
2720.000000	96.915	-115.9952
2760.000000	97.156	-116.7202
2800.000000	97.388	-117.3387
2850.000000	97.636	-118.2712
2900.000000	97.910	-119.1267
2950.000000	98.172	-120.1821
3000.000000	98.461	-121.3680
3040.000000	98.640	-122.5188
3070.000000	98.803	-123.6548
3110.000000	98.923	-125.2665
3150.000000	99.025	-126.6089
3200.000000	99.120	-128.3976
3250.000000	99.201	-130.2769
3300.000000	99.278	-131.7311
3350.000000	99.255	-133.3922
3400.000000	99.243	-134.5754
3450.000000	99.228	-135.7360
3500.000000	99.212	-137.0540
3550.000000	99.238	-137.8557
3600.000000	99.134	-138.7986
3650.000000	99.116	-139.2053
3700.000000	99.113	-139.8544
3750.000000	99.057	-140.3888
3820.000000	98.995	-141.2474
3870.000000	99.056	-141.5615
3950.000000	98.994	-141.8877
4000.000000	99.024	-142.0684
4060.000000	99.085	-142.8494
4120.000000	99.115	-143.3226
4180.000000	99.192	-143.4685
4250.000000	99.271	-143.9026
4310.000000	99.265	-144.8564
4370.000000	99.367	-145.1340
4440.000000	99.538	-146.0959
4500.000000	99.559	-147.4045
4550.000000	99.668	-149.0623
4620.000000	99.676	-150.1757
4680.000000	99.749	-152.2004
4750.000000	99.683	-154.6849
4820.000000	99.538	-156.8344
4870.000000	99.245	-158.3445
4940.000000	98.792	-161.5386
5000.000000	98.080	-161.8514
5080.000000	97.074	-160.3121
5150.000000	96.369	-155.4882
5220.000000	96.309	-146.7505
5300.000000	96.991	-138.5670
5380.000000	98.299	-134.3124
5450.000000	99.464	-134.4281
5520.000000	100.389	-136.3704
5600.000000	101.186	-142.3889
5700.000000	101.525	-149.9377
5800.000000	101.708	-157.4295
5900.000000	101.491	-162.1475
6000.000000	101.149	-168.1606
6080.000000	100.729	-170.6525
6150.000000	100.298	-174.2729
6220.000000	99.901	-175.3849
6300.000000	99.430	-175.6085
6400.000000	98.876	-176.8298
6500.000000	98.587	-178.6536
6600.000000	98.062	-177.5615
6700.000000	97.818	-176.7103
6800.000000	97.269	-177.6379
6900.000000	97.356	-177.6417
7000.000000	97.098	-177.8739
7100.000000	96.854	-177.6600
7200.000000	97.050	-176.6561
7300.000000	96.580	-173.3667
7400.000000	96.942	-172.6188
7500.000000	96.941	-171.6682
7620.000000	97.186	-170.7384
7750.000000	97.220	-168.8840
7880.000000	98.177	-169.4971
8000.000000	98.758	-173.4547
8120.000000	98.332	178.4610
8250.000000	98.376	172.0913
8380.000000	97.450	167.5614
8500.000000	96.185	165.2737
8620.000000	95.593	161.2183
8750.000000	94.380	162.4120
8850.000000	93.629	166.4677
9000.000000	93.306	168.8948
9120.000000	92.445	166.9106
9250.000000	91.856	168.9512
9380.000000	91.869	171.1961
9500.000000	91.117	178.0322
9620.000000	90.459	174.8569
9750.000000	90.220	179.2089
9880.000000	90.691	-176.6903
10000.000000	90.461	-172.1863
10150.000000	89.371	-170.1815
10300.000000	90.117	-162.1564
10440.000000	90.626	-166.3104
10600.000000	90.003	-166.1099
10750.000000	90.098	-155.5134
10900.000000	90.384	-155.2977
11060.000000	91.229	-160.8016
11200.000000	91.194	-160.7844
11380.000000	90.755	-152.4965
11500.000000	90.025	-160.1411
11720.000000	90.533	-158.4772
11800.000000	90.415	-145.4331
12060.000000	89.940	-150.7449
12200.000000	92.432	-145.7939
12410.000000	92.920	-139.0734
12500.000000	93.085	-149.2486
12650.000000	92.517	-145.6453
12800.000000	93.183	-146.0541
13150.000000	95.775	-155.9469
13200.000000	98.152	-154.5386
13400.000000	96.909	-162.9520
13600.000000	98.366	169.9615
13800.000000	96.866	158.3319
14000.000000	95.087	168.8672
14300.000000	91.582	151.1701
14500.000000	91.576	151.4555
14750.000000	91.813	174.4396
15000.000000	92.554	172.3259
15250.000000	89.697	-177.7102
15500.000000	92.451	-178.5960
15750.000000	91.892	-171.3102
16000.000000	93.632	162.4851
16250.000000	93.078	156.4951
16500.000000	96.474	166.7683
16750.000000	94.508	130.3974
17000.000000	93.643	113.5715
17250.000000	95.311	121.8182
17500.000000	90.504	91.0596
17750.000000	88.539	90.1119
18000.000000	88.868	122.6418
18250.000000	84.225	89.3299
18500.000000	82.012	99.4368
18750.000000	85.506	111.0829
19000.000000	77.685	159.5722
19250.000000	84.967	159.9193
19500.000000	82.882	159.3931
19750.000000	76.137	86.8411
