* Measurement data measured by REW V5.20.4
* Source: Headset (2- USB-C to 3.5mm Headphone Jack Adapter), MICROPHONE (Master Volume), R, volume: 0.630
* Format: 256k Log Swept Sine, 1 sweep at -6.0 dBFS with no timing reference
* Dated: 11 Sep, 2022 1:17:16 AM
* REW Settings:
*  C-weighting compensation: Off
*  Target level: 75.0 dB
* Note: 
* Measurement: Sal0 R
* Smoothing: None
* Frequency Step: 1/48 octave
* Start Frequency: 20.300 Hz
*
* Freq(Hz)	SPL(dB)	Phase(degrees)
20.299999	97.669	-163.1943
20.600000	97.698	-163.8699
20.900000	97.718	-164.5476
21.200001	97.728	-165.2536
21.400000	97.728	-165.7091
21.799999	97.720	-166.5234
22.000000	97.716	-166.8624
22.400000	97.724	-167.4118
22.700001	97.750	-167.7919
23.000000	97.793	-168.2589
23.299999	97.836	-168.8898
23.600000	97.859	-169.6835
24.000000	97.833	-170.8727
24.299999	97.764	-171.6755
24.700001	97.630	-172.3753
25.000000	97.535	-172.5468
25.400000	97.473	-172.4434
25.799999	97.513	-172.4009
26.200001	97.622	-172.8603
26.500000	97.702	-173.5965
26.900000	97.752	-174.9026
27.200001	97.728	-175.8653
27.600000	97.630	-176.7951
28.000000	97.508	-177.1458
28.500000	97.406	-177.0347
29.000000	97.389	-177.0568
29.500000	97.400	-177.6758
30.000000	97.374	-178.6820
30.400000	97.330	-179.4038
30.700001	97.301	-179.7766
31.100000	97.292	179.9214
31.500000	97.319	179.6849
32.000000	97.363	179.2650
32.500000	97.360	178.7683
33.000000	97.303	178.4950
33.500000	97.246	178.5212
34.000000	97.247	178.4736
34.500000	97.287	177.9258
35.000000	97.297	176.9349
35.500000	97.249	175.9985
36.000000	97.185	175.5007
36.500000	97.160	175.3373
37.000000	97.172	175.1171
37.500000	97.174	174.6771
38.200001	97.112	174.0388
38.700001	97.052	173.7765
39.500000	97.003	173.3970
40.000000	96.982	173.0263
40.599998	96.939	172.5454
41.200001	96.883	172.1279
41.799999	96.823	171.7212
42.500000	96.747	171.2046
43.099998	96.684	170.7823
43.700001	96.634	170.4335
44.400002	96.598	170.1155
45.000000	96.583	169.8536
45.500000	96.570	169.5901
46.200001	96.533	169.1722
46.799999	96.488	168.8546
47.500000	96.442	168.5612
48.200001	96.407	168.2921
48.700001	96.385	168.1092
49.400002	96.357	167.8563
50.000000	96.329	167.5846
50.799999	96.268	167.1732
51.500000	96.199	166.9319
52.200001	96.150	166.7605
53.000000	96.113	166.4198
53.799999	96.061	166.0760
54.500000	96.021	165.9513
55.200001	95.993	165.8047
56.000000	95.935	165.5180
57.000000	95.857	165.2230
58.000000	95.811	164.6662
59.000000	95.726	164.3735
60.000000	95.680	164.3713
60.799999	95.618	164.0346
61.500000	95.540	163.9199
62.200001	95.521	163.9471
63.000000	95.533	163.6860
64.000000	95.486	163.4080
65.000000	95.439	163.2599
66.000000	95.349	162.9355
67.000000	95.267	162.9091
68.000000	95.219	162.7327
69.000000	95.164	162.4820
70.000000	95.102	162.2354
71.000000	95.050	162.2249
72.000000	95.014	161.9993
73.000000	94.929	161.8799
74.000000	94.904	161.9287
75.000000	94.865	161.5775
76.199997	94.768	161.5581
77.500000	94.726	161.4647
78.800003	94.650	161.2357
80.000000	94.612	161.2451
81.199997	94.534	160.9741
82.500000	94.481	161.1549
83.800003	94.425	160.7283
85.000000	94.345	160.9224
86.199997	94.316	160.7110
87.500000	94.244	160.7640
88.500000	94.227	160.7587
90.000000	94.136	160.6130
91.199997	94.083	160.6085
92.500000	94.038	160.6434
93.800003	93.979	160.4889
95.000000	93.907	160.6304
96.199997	93.905	160.6398
97.500000	93.841	160.3445
98.800003	93.763	160.6083
100.000000	93.766	160.6573
101.500000	93.677	160.3961
103.000000	93.597	160.4703
104.400002	93.529	160.9177
106.000000	93.546	160.5801
107.500000	93.450	160.5425
109.000000	93.408	160.7090
110.599998	93.352	160.7130
112.000000	93.309	160.8080
113.800003	93.258	160.8334
115.000000	93.195	161.0820
117.199997	93.146	160.8862
118.000000	93.125	160.8960
120.599998	92.991	160.9094
122.000000	92.988	161.3266
124.099998	92.878	161.6275
125.000000	92.854	161.5109
126.500000	92.883	161.5594
128.000000	92.826	161.4117
131.500000	92.729	161.8350
132.000000	92.760	161.6979
134.000000	92.619	161.9341
136.000000	92.600	161.5768
138.000000	92.528	162.0580
140.000000	92.480	162.1156
143.000000	92.421	162.3738
145.000000	92.385	162.5482
147.500000	92.328	162.7598
150.000000	92.222	163.0051
152.500000	92.203	163.0525
155.000000	92.116	163.1528
157.500000	92.031	163.6113
160.000000	92.090	162.2715
162.500000	91.980	164.0844
165.000000	91.949	163.9554
167.500000	91.854	164.2988
170.000000	91.822	164.5895
172.500000	91.805	164.6854
175.000000	91.641	165.2714
177.500000	91.725	165.1508
180.000000	91.650	165.2518
182.500000	91.650	165.5593
185.000000	91.543	165.4838
187.500000	91.579	165.8967
190.000000	91.523	166.0617
192.500000	91.446	166.3395
195.000000	91.424	166.4757
197.500000	91.409	166.8176
200.000000	91.399	166.8936
203.000000	91.357	167.2032
206.000000	91.328	167.3212
209.000000	91.282	167.6810
212.000000	91.244	167.9711
214.000000	91.239	168.0555
218.000000	91.284	168.0795
220.000000	91.172	168.7164
224.000000	91.114	168.9860
227.000000	91.102	169.2635
230.000000	90.995	169.0438
233.000000	90.975	169.4041
236.000000	91.027	169.9270
240.000000	90.971	170.4464
243.000000	90.929	170.5259
247.000000	90.903	170.8225
250.000000	90.899	171.2272
254.000000	90.865	171.4329
258.000000	90.831	171.7797
262.000000	90.811	172.2708
265.000000	90.792	172.2866
269.000000	90.768	172.6059
272.000000	90.743	172.8435
276.000000	90.721	173.2212
280.000000	90.689	173.4737
285.000000	90.655	173.8058
290.000000	90.631	174.2492
295.000000	90.580	174.7223
300.000000	90.558	174.9893
304.000000	90.552	175.3025
307.000000	90.524	175.4910
311.000000	90.515	175.8014
315.000000	90.503	176.1755
320.000000	90.466	176.4166
325.000000	90.430	176.8801
330.000000	90.413	177.3178
335.000000	90.392	177.6791
340.000000	90.377	178.0076
345.000000	90.339	178.3848
350.000000	90.345	179.0360
355.000000	90.292	179.1709
360.000000	90.279	179.5868
365.000000	90.257	179.9876
370.000000	90.255	-179.6129
375.000000	90.214	-179.0139
382.000000	90.233	-178.4814
387.000000	90.249	-178.0625
395.000000	90.257	-177.2730
400.000000	90.271	-176.8105
406.000000	90.305	-176.6848
412.000000	90.287	-176.4029
418.000000	90.297	-176.3172
425.000000	90.266	-175.8594
431.000000	90.253	-175.4658
437.000000	90.236	-175.1522
444.000000	90.221	-174.7697
450.000000	90.217	-174.4138
455.000000	90.202	-174.0621
462.000000	90.188	-173.6568
468.000000	90.177	-173.3000
475.000000	90.169	-172.8445
482.000000	90.157	-172.4598
487.000000	90.155	-172.0965
494.000000	90.145	-171.6934
500.000000	90.148	-171.3842
508.000000	90.143	-170.8058
515.000000	90.137	-170.3328
522.000000	90.134	-169.9160
530.000000	90.135	-169.4303
538.000000	90.135	-168.9386
545.000000	90.133	-168.5143
552.000000	90.137	-168.0684
560.000000	90.136	-167.5971
570.000000	90.143	-166.9353
580.000000	90.138	-166.3511
590.000000	90.147	-165.7252
600.000000	90.157	-165.1418
608.000000	90.164	-164.6215
615.000000	90.168	-164.1809
622.000000	90.170	-163.7530
630.000000	90.178	-163.2335
640.000000	90.187	-162.6170
650.000000	90.203	-161.9505
660.000000	90.207	-161.4085
670.000000	90.219	-160.7661
680.000000	90.237	-160.1139
690.000000	90.246	-159.4920
700.000000	90.259	-158.8761
710.000000	90.281	-158.2447
720.000000	90.304	-157.6081
730.000000	90.325	-156.9678
740.000000	90.345	-156.3338
750.000000	90.370	-155.7453
762.000000	90.410	-154.9926
775.000000	90.444	-154.1643
788.000000	90.489	-153.3670
800.000000	90.528	-152.6748
812.000000	90.573	-151.9338
825.000000	90.615	-151.1731
838.000000	90.681	-150.3916
850.000000	90.718	-149.6748
862.000000	90.788	-149.0596
875.000000	90.852	-148.2687
885.000000	90.901	-147.8339
900.000000	90.991	-146.9606
912.000000	91.077	-146.3885
925.000000	91.149	-145.8286
938.000000	91.225	-145.3032
950.000000	91.299	-144.7488
962.000000	91.375	-144.2046
975.000000	91.473	-143.7754
988.000000	91.584	-143.3512
1000.000000	91.660	-142.8696
1015.000000	91.770	-142.4318
1030.000000	91.883	-141.9681
1044.000000	91.985	-141.6299
1060.000000	92.101	-141.2828
1075.000000	92.196	-141.1779
1090.000000	92.241	-140.8324
1106.000000	92.331	-140.2048
1120.000000	92.423	-139.8853
1138.000000	92.541	-139.5903
1150.000000	92.619	-139.4261
1172.000000	92.740	-139.1624
1180.000000	92.782	-139.0241
1206.000000	92.913	-138.7959
1220.000000	92.994	-138.6706
1241.000000	93.141	-138.4762
1250.000000	93.208	-138.3908
1265.000000	93.311	-138.2657
1280.000000	93.400	-138.1591
1315.000000	93.620	-137.8970
1320.000000	93.650	-137.8477
1340.000000	93.770	-137.6919
1360.000000	93.931	-137.5632
1380.000000	94.050	-137.4217
1400.000000	94.172	-137.2399
1430.000000	94.355	-137.0659
1450.000000	94.469	-136.8654
1475.000000	94.614	-136.7076
1500.000000	94.761	-136.5223
1525.000000	94.892	-136.3331
1550.000000	95.011	-136.1486
1575.000000	95.126	-135.9794
1600.000000	95.239	-135.8160
1625.000000	95.349	-135.6416
1650.000000	95.460	-135.5273
1675.000000	95.575	-135.3575
1700.000000	95.690	-135.2315
1725.000000	95.803	-135.1221
1750.000000	95.921	-135.0274
1775.000000	96.035	-134.9174
1800.000000	96.154	-134.8199
1825.000000	96.270	-134.7680
1850.000000	96.384	-134.7069
1875.000000	96.501	-134.6907
1900.000000	96.619	-134.6702
1925.000000	96.733	-134.6784
1950.000000	96.845	-134.7168
1975.000000	96.957	-134.7540
2000.000000	97.069	-134.8146
2030.000000	97.203	-134.8859
2060.000000	97.332	-135.0165
2090.000000	97.462	-135.1739
2120.000000	97.593	-135.3645
2140.000000	97.675	-135.5015
2180.000000	97.841	-135.8106
2200.000000	97.920	-135.9843
2240.000000	98.079	-136.3807
2270.000000	98.190	-136.6773
2300.000000	98.304	-137.0367
2330.000000	98.414	-137.4088
2360.000000	98.518	-137.8030
2400.000000	98.653	-138.3636
2430.000000	98.746	-138.7890
2470.000000	98.869	-139.4155
2500.000000	98.956	-139.9129
2540.000000	99.065	-140.5708
2580.000000	99.164	-141.2438
2620.000000	99.255	-141.9428
2650.000000	99.319	-142.5123
2690.000000	99.395	-143.2213
2720.000000	99.447	-143.7760
2760.000000	99.509	-144.4922
2800.000000	99.566	-145.2405
2850.000000	99.623	-146.1545
2900.000000	99.671	-147.0449
2950.000000	99.706	-147.9025
3000.000000	99.730	-148.7716
3040.000000	99.744	-149.4232
3070.000000	99.753	-149.8826
3110.000000	99.753	-150.5163
3150.000000	99.752	-151.1051
3200.000000	99.744	-151.8063
3250.000000	99.733	-152.4664
3300.000000	99.718	-153.0984
3350.000000	99.702	-153.6859
3400.000000	99.685	-154.2480
3450.000000	99.667	-154.8248
3500.000000	99.654	-155.3611
3550.000000	99.631	-155.9090
3600.000000	99.607	-156.4369
3650.000000	99.579	-156.9325
3700.000000	99.552	-157.4349
3750.000000	99.522	-157.8928
3820.000000	99.477	-158.5589
3870.000000	99.442	-159.0021
3950.000000	99.386	-159.7216
4000.000000	99.352	-160.1725
4060.000000	99.303	-160.7174
4120.000000	99.253	-161.2530
4180.000000	99.202	-161.8379
4250.000000	99.138	-162.5170
4310.000000	99.070	-163.0917
4370.000000	99.006	-163.6987
4440.000000	98.920	-164.4136
4500.000000	98.834	-165.0213
4550.000000	98.761	-165.5263
4620.000000	98.644	-166.2108
4680.000000	98.533	-166.7798
4750.000000	98.387	-167.3960
4820.000000	98.229	-167.9687
4870.000000	98.105	-168.3510
4940.000000	97.923	-168.7897
5000.000000	97.758	-169.0957
5080.000000	97.517	-169.3889
5150.000000	97.304	-169.5131
5220.000000	97.092	-169.4733
5300.000000	96.839	-169.2986
5380.000000	96.592	-168.9168
5450.000000	96.384	-168.4947
5520.000000	96.171	-167.9003
5600.000000	95.945	-167.0832
5700.000000	95.687	-165.8885
5800.000000	95.453	-164.3114
5900.000000	95.357	-162.3049
6000.000000	95.413	-161.4910
6080.000000	95.349	-161.2972
6150.000000	95.270	-160.9747
6220.000000	95.189	-160.5585
6300.000000	95.097	-159.9291
6400.000000	94.997	-159.0751
6500.000000	94.924	-158.1075
6600.000000	94.881	-157.0873
6700.000000	94.870	-156.0154
6800.000000	94.898	-154.9692
6900.000000	94.999	-154.0216
7000.000000	95.190	-153.1569
7100.000000	95.412	-152.4666
7200.000000	95.678	-152.0080
7300.000000	95.975	-151.7242
7400.000000	96.316	-151.7345
7500.000000	96.701	-151.9427
7620.000000	97.243	-152.7135
7750.000000	98.061	-154.4744
7880.000000	98.815	-158.0811
8000.000000	99.526	-163.9943
8120.000000	100.029	-172.7906
8250.000000	100.021	175.1992
8380.000000	99.285	163.3130
8500.000000	98.116	154.6225
8620.000000	96.750	148.6960
8750.000000	95.221	145.0154
8850.000000	94.086	143.6392
9000.000000	92.527	143.1735
9120.000000	91.373	143.8193
9250.000000	90.274	145.3892
9380.000000	89.275	147.3299
9500.000000	88.439	149.4818
9620.000000	87.690	151.7855
9750.000000	86.948	154.3602
9880.000000	86.270	157.2685
10000.000000	85.678	160.0813
10150.000000	85.017	163.8164
10300.000000	84.380	168.3465
10440.000000	83.923	172.7020
10600.000000	83.468	178.5424
10750.000000	83.221	-175.2976
10900.000000	83.248	-168.2762
11060.000000	83.723	-160.8208
11200.000000	84.545	-155.1953
11380.000000	85.976	-151.8560
11500.000000	86.965	-152.3128
11720.000000	88.450	-156.6908
11800.000000	88.866	-158.8335
12060.000000	90.161	-166.3655
12200.000000	90.876	-170.9242
12410.000000	92.170	-179.8615
12500.000000	92.774	174.9488
12650.000000	93.720	163.8384
12800.000000	94.351	149.1710
13150.000000	93.053	110.9977
13200.000000	92.592	106.5491
13400.000000	90.591	92.7926
13600.000000	88.630	83.6159
13800.000000	86.967	77.3759
14000.000000	85.611	72.6895
14300.000000	83.969	66.6818
14500.000000	83.149	62.6105
14750.000000	82.502	57.8174
15000.000000	82.090	52.0114
15250.000000	81.912	44.8256
15500.000000	82.069	36.3724
15750.000000	82.389	25.3079
16000.000000	82.881	10.9440
16250.000000	83.474	-7.9091
16500.000000	83.653	-31.2124
16750.000000	83.157	-57.5983
17000.000000	81.699	-83.1540
17250.000000	80.068	-105.9736
17500.000000	78.227	-126.2508
17750.000000	76.662	-145.6418
18000.000000	75.152	-165.9375
18250.000000	73.868	173.8435
18500.000000	72.712	151.9509
18750.000000	71.629	127.8978
19000.000000	70.809	97.4023
19250.000000	69.404	61.8731
19500.000000	67.519	21.6699
19750.000000	63.791	-24.6614
