* Measurement data measured by REW V5.20.4
* Source: Headset (2- USB-C to 3.5mm Headphone Jack Adapter), MICROPHONE (Master Volume), R, volume: 0.630
* Format: 256k Log Swept Sine, 1 sweep at -6.0 dBFS with no timing reference
* Dated: 11 Sep, 2022 1:18:18 AM
* REW Settings:
*  C-weighting compensation: Off
*  Target level: 75.0 dB
* Note: 
* Measurement: Sal0 L
* Smoothing: None
* Frequency Step: 1/48 octave
* Start Frequency: 20.300 Hz
*
* Freq(Hz)	SPL(dB)	Phase(degrees)
20.299999	98.085	-165.9516
20.600000	98.101	-166.6527
20.900000	98.112	-167.2922
21.200001	98.116	-167.9317
21.400000	98.116	-168.3522
21.799999	98.105	-169.1584
22.000000	98.095	-169.5344
22.400000	98.073	-170.2210
22.700001	98.059	-170.6913
23.000000	98.051	-171.1509
23.299999	98.049	-171.6270
23.600000	98.049	-172.1300
24.000000	98.046	-172.8316
24.299999	98.037	-173.3489
24.700001	98.016	-173.9774
25.000000	97.995	-174.3836
25.400000	97.969	-174.8484
25.799999	97.952	-175.2767
26.200001	97.948	-175.7296
26.500000	97.954	-176.1087
26.900000	97.970	-176.6726
27.200001	97.983	-177.1305
27.600000	98.001	-177.7637
28.000000	98.007	-178.3795
28.500000	97.984	-179.0408
29.000000	97.927	-179.5105
29.500000	97.852	-179.8272
30.000000	97.784	179.8364
30.400000	97.741	179.4350
30.700001	97.714	179.0394
31.100000	97.680	178.4348
31.500000	97.649	177.8306
32.000000	97.617	177.2026
32.500000	97.597	176.7539
33.000000	97.585	176.4050
33.500000	97.565	176.0529
34.000000	97.532	175.6462
34.500000	97.491	175.2008
35.000000	97.445	174.7590
35.500000	97.408	174.3507
36.000000	97.384	173.9710
36.500000	97.368	173.5948
37.000000	97.350	173.2056
37.500000	97.322	172.8151
38.200001	97.262	172.3234
38.700001	97.213	172.0358
39.500000	97.156	171.6120
40.000000	97.133	171.2833
40.599998	97.103	170.7944
41.200001	97.059	170.2980
41.799999	97.010	169.8908
42.500000	96.965	169.4788
43.099998	96.932	169.0818
43.700001	96.889	168.6910
44.400002	96.833	168.3586
45.000000	96.796	168.1484
45.500000	96.771	167.9508
46.200001	96.734	167.6068
46.799999	96.693	167.2850
47.500000	96.638	166.9424
48.200001	96.593	166.6675
48.700001	96.573	166.4764
49.400002	96.548	166.1413
50.000000	96.509	165.8388
50.799999	96.433	165.5807
51.500000	96.378	165.4214
52.200001	96.338	165.1463
53.000000	96.286	164.7719
53.799999	96.227	164.5592
54.500000	96.179	164.4644
55.200001	96.137	164.2872
56.000000	96.087	163.9281
57.000000	96.022	163.5440
58.000000	95.966	163.3940
59.000000	95.887	163.1569
60.000000	95.794	162.8366
60.799999	95.758	162.6281
61.500000	95.738	162.4872
62.200001	95.701	162.3914
63.000000	95.634	162.2725
64.000000	95.551	161.9824
65.000000	95.496	161.7024
66.000000	95.460	161.5830
67.000000	95.413	161.3752
68.000000	95.345	161.1126
69.000000	95.299	161.0880
70.000000	95.260	161.0430
71.000000	95.187	160.8920
72.000000	95.117	160.6871
73.000000	95.063	160.5923
74.000000	95.024	160.5808
75.000000	94.958	160.5269
76.199997	94.886	160.4850
77.500000	94.806	160.3774
78.800003	94.767	160.1794
80.000000	94.667	160.1199
81.199997	94.649	160.2012
82.500000	94.576	159.9247
83.800003	94.531	160.0067
85.000000	94.471	159.8412
86.199997	94.409	159.7668
87.500000	94.353	159.7726
88.500000	94.307	159.7000
90.000000	94.232	159.6194
91.199997	94.181	159.5826
92.500000	94.120	159.5897
93.800003	94.067	159.5628
95.000000	94.022	159.5624
96.199997	93.969	159.6373
97.500000	93.913	159.5500
98.800003	93.863	159.5417
100.000000	93.830	159.5580
101.500000	93.754	159.6768
103.000000	93.692	159.5859
104.400002	93.644	159.6636
106.000000	93.580	159.7277
107.500000	93.527	159.8271
109.000000	93.469	159.8845
110.599998	93.404	159.9198
112.000000	93.360	159.8146
113.800003	93.324	160.3049
115.000000	93.276	160.1318
117.199997	93.154	159.9753
118.000000	93.164	160.1648
120.599998	93.081	160.3989
122.000000	93.032	160.6401
124.099998	92.979	160.4971
125.000000	92.945	160.5867
126.500000	92.909	160.6349
128.000000	92.846	160.9165
131.500000	92.762	161.1082
132.000000	92.754	161.1480
134.000000	92.688	161.3003
136.000000	92.638	161.4453
138.000000	92.583	161.5018
140.000000	92.537	161.7360
143.000000	92.462	161.9226
145.000000	92.418	162.1371
147.500000	92.358	162.3696
150.000000	92.295	162.5431
152.500000	92.250	162.7693
155.000000	92.177	162.9073
157.500000	92.132	163.2234
160.000000	92.010	163.4575
162.500000	92.037	163.5934
165.000000	91.976	163.8110
167.500000	91.900	164.1398
170.000000	91.834	164.3374
172.500000	91.828	164.6537
175.000000	91.626	165.0787
177.500000	91.749	165.2268
180.000000	91.654	165.2517
182.500000	91.640	165.6411
185.000000	91.510	165.9585
187.500000	91.552	166.1558
190.000000	91.524	165.9240
192.500000	91.541	166.6418
195.000000	91.482	166.5190
197.500000	91.453	166.7987
200.000000	91.410	166.9393
203.000000	91.390	167.2767
206.000000	91.350	167.6541
209.000000	91.309	167.9902
212.000000	91.292	168.1422
214.000000	91.264	168.2567
218.000000	91.268	168.7270
220.000000	91.211	168.8734
224.000000	91.175	169.0706
227.000000	91.153	169.2545
230.000000	91.117	169.6655
233.000000	91.042	169.8777
236.000000	91.049	170.4508
240.000000	91.011	170.5921
243.000000	90.987	170.8387
247.000000	90.976	171.2568
250.000000	90.939	171.2604
254.000000	90.922	171.8495
258.000000	90.898	172.1850
262.000000	90.879	172.6016
265.000000	90.849	172.8330
269.000000	90.846	173.1482
272.000000	90.817	173.4136
276.000000	90.790	173.7501
280.000000	90.762	174.0649
285.000000	90.733	174.4594
290.000000	90.721	174.8742
295.000000	90.695	175.2371
300.000000	90.682	175.7112
304.000000	90.645	175.9494
307.000000	90.646	176.1840
311.000000	90.616	176.5164
315.000000	90.591	176.7576
320.000000	90.588	177.1910
325.000000	90.562	177.5162
330.000000	90.537	177.9111
335.000000	90.525	178.3336
340.000000	90.510	178.6458
345.000000	90.495	179.0118
350.000000	90.472	179.4880
355.000000	90.459	179.7155
360.000000	90.447	-179.9076
365.000000	90.439	-179.6181
370.000000	90.418	-179.2108
375.000000	90.414	-178.8478
382.000000	90.392	-178.3569
387.000000	90.384	-177.9508
395.000000	90.367	-177.4033
400.000000	90.346	-176.9771
406.000000	90.345	-176.5502
412.000000	90.337	-176.0447
418.000000	90.338	-175.6002
425.000000	90.365	-175.0379
431.000000	90.355	-174.5950
437.000000	90.377	-174.3945
444.000000	90.379	-174.0561
450.000000	90.382	-173.7199
455.000000	90.361	-173.4888
462.000000	90.361	-173.1364
468.000000	90.348	-172.7488
475.000000	90.329	-172.4137
482.000000	90.320	-172.0214
487.000000	90.312	-171.7485
494.000000	90.306	-171.2983
500.000000	90.302	-171.0364
508.000000	90.292	-170.5027
515.000000	90.293	-170.1083
522.000000	90.287	-169.6716
530.000000	90.285	-169.1665
538.000000	90.281	-168.6931
545.000000	90.281	-168.2272
552.000000	90.277	-167.8466
560.000000	90.277	-167.3430
570.000000	90.277	-166.7314
580.000000	90.278	-166.1300
590.000000	90.288	-165.4929
600.000000	90.287	-164.8558
608.000000	90.289	-164.3255
615.000000	90.293	-163.8973
622.000000	90.293	-163.4403
630.000000	90.297	-162.9448
640.000000	90.308	-162.3318
650.000000	90.314	-161.7217
660.000000	90.334	-161.0452
670.000000	90.339	-160.3865
680.000000	90.349	-159.7580
690.000000	90.364	-159.1373
700.000000	90.379	-158.4925
710.000000	90.387	-157.8068
720.000000	90.413	-157.1792
730.000000	90.444	-156.5420
740.000000	90.455	-155.9250
750.000000	90.489	-155.2282
762.000000	90.513	-154.4584
775.000000	90.564	-153.6882
788.000000	90.590	-152.9176
800.000000	90.635	-152.0792
812.000000	90.687	-151.3596
825.000000	90.742	-150.5636
838.000000	90.803	-149.7628
850.000000	90.860	-149.1149
862.000000	90.914	-148.4196
875.000000	90.988	-147.7261
885.000000	91.050	-147.1744
900.000000	91.140	-146.3342
912.000000	91.214	-145.7924
925.000000	91.299	-145.1454
938.000000	91.395	-144.5758
950.000000	91.478	-144.0677
962.000000	91.573	-143.5683
975.000000	91.678	-143.1722
988.000000	91.797	-142.7361
1000.000000	91.914	-142.5567
1015.000000	92.050	-142.5744
1030.000000	92.092	-143.3845
1044.000000	91.902	-142.6410
1060.000000	92.036	-140.8165
1075.000000	92.207	-140.1901
1090.000000	92.319	-139.9580
1106.000000	92.406	-139.5812
1120.000000	92.487	-139.2018
1138.000000	92.619	-138.7053
1150.000000	92.690	-138.5048
1172.000000	92.818	-138.1608
1180.000000	92.875	-138.0923
1206.000000	93.013	-137.8091
1220.000000	93.101	-137.6454
1241.000000	93.260	-137.3774
1250.000000	93.323	-137.3219
1265.000000	93.431	-137.2017
1280.000000	93.533	-137.0593
1315.000000	93.759	-136.7666
1320.000000	93.797	-136.7182
1340.000000	93.924	-136.5639
1360.000000	94.084	-136.3846
1380.000000	94.215	-136.2212
1400.000000	94.341	-136.0819
1430.000000	94.529	-135.8481
1450.000000	94.648	-135.6817
1475.000000	94.798	-135.4896
1500.000000	94.953	-135.3201
1525.000000	95.099	-135.1272
1550.000000	95.226	-134.9779
1575.000000	95.346	-134.7834
1600.000000	95.465	-134.6286
1625.000000	95.581	-134.4705
1650.000000	95.707	-134.3351
1675.000000	95.822	-134.2069
1700.000000	95.947	-134.1153
1725.000000	96.070	-133.9918
1750.000000	96.194	-133.9131
1775.000000	96.318	-133.8653
1800.000000	96.440	-133.7957
1825.000000	96.566	-133.7794
1850.000000	96.690	-133.7466
1875.000000	96.812	-133.7717
1900.000000	96.936	-133.7636
1925.000000	97.059	-133.8608
1950.000000	97.177	-133.9422
1975.000000	97.296	-134.0078
2000.000000	97.413	-134.1312
2030.000000	97.552	-134.2847
2060.000000	97.688	-134.4994
2090.000000	97.823	-134.7353
2120.000000	97.959	-134.9935
2140.000000	98.042	-135.2013
2180.000000	98.214	-135.6091
2200.000000	98.297	-135.8718
2240.000000	98.455	-136.3807
2270.000000	98.571	-136.8036
2300.000000	98.682	-137.2583
2330.000000	98.787	-137.7248
2360.000000	98.892	-138.2261
2400.000000	99.016	-138.9305
2430.000000	99.109	-139.4723
2470.000000	99.221	-140.2287
2500.000000	99.299	-140.8241
2540.000000	99.391	-141.6211
2580.000000	99.476	-142.4194
2620.000000	99.550	-143.2587
2650.000000	99.601	-143.8761
2690.000000	99.658	-144.6874
2720.000000	99.695	-145.3174
2760.000000	99.735	-146.1143
2800.000000	99.764	-146.9141
2850.000000	99.790	-147.8827
2900.000000	99.806	-148.8109
2950.000000	99.809	-149.7076
3000.000000	99.803	-150.5372
3040.000000	99.793	-151.1730
3070.000000	99.782	-151.6302
3110.000000	99.762	-152.1975
3150.000000	99.739	-152.7409
3200.000000	99.702	-153.3895
3250.000000	99.666	-153.9607
3300.000000	99.628	-154.5202
3350.000000	99.585	-155.0348
3400.000000	99.540	-155.4963
3450.000000	99.494	-155.9284
3500.000000	99.450	-156.2914
3550.000000	99.409	-156.6814
3600.000000	99.364	-156.9684
3650.000000	99.325	-157.2522
3700.000000	99.283	-157.5182
3750.000000	99.244	-157.7958
3820.000000	99.192	-158.1097
3870.000000	99.158	-158.3439
3950.000000	99.106	-158.7068
4000.000000	99.073	-158.9199
4060.000000	99.038	-159.1899
4120.000000	99.001	-159.4613
4180.000000	98.965	-159.7726
4250.000000	98.925	-160.1454
4310.000000	98.885	-160.4868
4370.000000	98.854	-160.8470
4440.000000	98.809	-161.2958
4500.000000	98.768	-161.7100
4550.000000	98.731	-162.0814
4620.000000	98.673	-162.5912
4680.000000	98.613	-163.0533
4750.000000	98.541	-163.6109
4820.000000	98.457	-164.1598
4870.000000	98.383	-164.5362
4940.000000	98.276	-165.0789
5000.000000	98.170	-165.5213
5080.000000	98.021	-166.0957
5150.000000	97.877	-166.5062
5220.000000	97.725	-166.9071
5300.000000	97.548	-167.2579
5380.000000	97.356	-167.5494
5450.000000	97.184	-167.6814
5520.000000	96.996	-167.8138
5600.000000	96.783	-167.8428
5700.000000	96.505	-167.7601
5800.000000	96.223	-167.4846
5900.000000	95.949	-166.9793
6000.000000	95.684	-166.2266
6080.000000	95.503	-165.4055
6150.000000	95.386	-164.7498
6220.000000	95.269	-164.0974
6300.000000	95.131	-163.3367
6400.000000	95.000	-162.2550
6500.000000	94.900	-161.2642
6600.000000	94.813	-160.2027
6700.000000	94.760	-159.1527
6800.000000	94.733	-158.0948
6900.000000	94.767	-157.0612
7000.000000	94.881	-156.0405
7100.000000	95.041	-155.0698
7200.000000	95.250	-154.1447
7300.000000	95.502	-153.3840
7400.000000	95.823	-152.8450
7500.000000	96.220	-152.5917
7620.000000	96.808	-153.0214
7750.000000	97.646	-154.8168
7880.000000	98.353	-158.5819
8000.000000	98.954	-164.4668
8120.000000	99.332	-172.6130
8250.000000	99.259	176.7875
8380.000000	98.593	166.3015
8500.000000	97.558	158.3730
8620.000000	96.309	152.7403
8750.000000	94.864	149.0615
8850.000000	93.774	147.6050
9000.000000	92.240	147.1476
9120.000000	91.112	147.8203
9250.000000	89.988	149.3402
9380.000000	88.978	151.5646
9500.000000	88.098	154.0411
9620.000000	87.291	156.9685
9750.000000	86.491	160.6255
9880.000000	85.798	164.7541
10000.000000	85.229	169.1013
10150.000000	84.652	175.3621
10300.000000	84.310	-177.4521
10440.000000	84.290	-169.9654
10600.000000	84.732	-161.9516
10750.000000	85.621	-156.2966
10900.000000	86.714	-153.6222
11060.000000	87.875	-154.4306
11200.000000	88.670	-157.2151
11380.000000	89.339	-161.3128
11500.000000	89.784	-163.8871
11720.000000	90.321	-168.5567
11800.000000	90.601	-170.1789
12060.000000	91.781	-176.5827
12200.000000	92.618	178.2592
12410.000000	94.095	165.9763
12500.000000	94.684	158.3795
12650.000000	95.289	142.3899
12800.000000	95.042	123.9825
13150.000000	91.718	91.3360
13200.000000	91.166	88.4115
13400.000000	89.004	79.5887
13600.000000	87.158	73.9601
13800.000000	85.626	69.7022
14000.000000	84.404	66.1058
14300.000000	82.985	61.8622
14500.000000	82.325	58.4542
14750.000000	81.711	54.0167
15000.000000	81.476	48.5464
15250.000000	81.386	41.5731
15500.000000	81.595	33.1652
15750.000000	82.004	22.0975
16000.000000	82.471	7.7373
16250.000000	83.085	-11.2819
16500.000000	83.238	-34.8054
16750.000000	82.656	-61.1306
17000.000000	81.332	-86.4125
17250.000000	79.714	-108.5052
17500.000000	77.870	-130.1356
17750.000000	76.237	-149.7448
18000.000000	74.592	-170.7660
18250.000000	73.196	167.3367
18500.000000	71.832	144.6536
18750.000000	70.589	120.0771
19000.000000	69.448	89.2340
19250.000000	68.126	53.9604
19500.000000	65.980	12.3363
19750.000000	62.426	-35.1973
