* Measurement data measured by REW V5.20.4
* Source: Headset (2- USB-C to 3.5mm Headphone Jack Adapter), MICROPHONE (Master Volume), R, volume: 0.260
* Format: 256k Log Swept Sine, 1 sweep at -6.0 dBFS with no timing reference
* Dated: 13 Jan, 2023 9:03:16 PM
* REW Settings:
*  C-weighting compensation: Off
*  Target level: 75.0 dB
* Note: 
* Measurement: Moondrop Sparks L
* Smoothing: None
* Frequency Step: 1/48 octave
* Start Frequency: 20.000 Hz
*
* Freq(Hz)	SPL(dB)	Phase(degrees)
20.000000	90.321	-102.1788
20.299999	90.431	-103.3523
20.600000	90.532	-104.5189
20.900000	90.623	-105.6553
21.200001	90.708	-106.7384
21.400000	90.763	-107.4268
21.799999	90.877	-108.7419
22.000000	90.935	-109.3850
22.400000	91.056	-110.6865
22.700001	91.146	-111.7028
23.000000	91.230	-112.7579
23.299999	91.303	-113.8277
23.600000	91.364	-114.8797
24.000000	91.433	-116.2049
24.299999	91.481	-117.1209
24.700001	91.548	-118.2550
25.000000	91.605	-119.0765
25.400000	91.686	-120.1869
25.799999	91.769	-121.3473
26.200001	91.844	-122.5449
26.500000	91.893	-123.4422
26.900000	91.949	-124.6110
27.200001	91.985	-125.4620
27.600000	92.032	-126.5730
28.000000	92.074	-127.6712
28.500000	92.115	-129.0100
29.000000	92.144	-130.2427
29.500000	92.173	-131.3266
30.000000	92.216	-132.3199
30.400000	92.263	-133.1287
30.700001	92.300	-133.7698
31.100000	92.344	-134.6629
31.500000	92.379	-135.5634
32.000000	92.413	-136.6450
32.500000	92.442	-137.6723
33.000000	92.470	-138.6797
33.500000	92.487	-139.6663
34.000000	92.500	-140.5916
34.500000	92.524	-141.4604
35.000000	92.555	-142.3515
35.500000	92.583	-143.3280
36.000000	92.592	-144.3298
36.500000	92.582	-145.2254
37.000000	92.576	-145.9592
37.500000	92.587	-146.6248
38.200001	92.621	-147.6776
38.700001	92.629	-148.5174
39.500000	92.617	-149.7536
40.000000	92.608	-150.4171
40.599998	92.606	-151.1740
41.200001	92.609	-151.9425
41.799999	92.612	-152.7366
42.500000	92.608	-153.7131
43.099998	92.588	-154.5466
43.700001	92.555	-155.2534
44.400002	92.532	-155.8875
45.000000	92.541	-156.4641
45.500000	92.550	-157.1001
46.200001	92.523	-158.0688
46.799999	92.475	-158.6481
47.500000	92.463	-159.0755
48.200001	92.493	-159.8104
48.700001	92.484	-160.5583
49.400002	92.410	-161.3661
50.000000	92.363	-161.6312
50.799999	92.384	-162.0992
51.500000	92.384	-162.9381
52.200001	92.332	-163.6231
53.000000	92.300	-164.0686
53.799999	92.301	-164.7253
54.500000	92.271	-165.4056
55.200001	92.229	-165.9373
56.000000	92.193	-166.4376
57.000000	92.164	-167.0168
58.000000	92.148	-167.7188
59.000000	92.104	-168.4256
60.000000	92.072	-169.0125
60.799999	92.037	-169.6208
61.500000	91.979	-169.9865
62.200001	91.945	-170.0967
63.000000	91.963	-170.3645
64.000000	91.962	-171.2800
65.000000	91.857	-172.0249
66.000000	91.789	-172.0361
67.000000	91.829	-172.4194
68.000000	91.793	-173.3387
69.000000	91.714	-173.7268
70.000000	91.701	-173.9977
71.000000	91.688	-174.5220
72.000000	91.654	-174.9696
73.000000	91.629	-175.3562
74.000000	91.596	-175.8095
75.000000	91.541	-176.1954
76.199997	91.479	-176.4586
77.500000	91.450	-176.8085
78.800003	91.401	-177.3463
80.000000	91.357	-177.7837
81.199997	91.311	-178.2003
82.500000	91.265	-178.6111
83.800003	91.226	-178.8744
85.000000	91.202	-179.2866
86.199997	91.144	-179.6225
87.500000	91.096	-179.8948
88.500000	91.062	179.8851
90.000000	91.012	179.4608
91.199997	90.965	179.1957
92.500000	90.924	178.8509
93.800003	90.868	178.5903
95.000000	90.836	178.3389
96.199997	90.788	178.0040
97.500000	90.729	177.7484
98.800003	90.686	177.5761
100.000000	90.662	177.2972
101.500000	90.598	176.9083
103.000000	90.541	176.7381
104.400002	90.494	176.5009
106.000000	90.430	176.3301
107.500000	90.380	176.0617
109.000000	90.309	175.8550
110.599998	90.254	175.6566
112.000000	90.201	175.3856
113.800003	90.124	175.2104
115.000000	90.097	175.0088
117.199997	89.990	175.2729
118.000000	90.031	175.0833
120.599998	89.879	174.7129
122.000000	89.855	174.4044
124.099998	89.708	174.1386
125.000000	89.711	174.2993
126.500000	89.640	173.8940
128.000000	89.621	174.1303
131.500000	89.460	173.8481
132.000000	89.435	173.8206
134.000000	89.352	173.7911
136.000000	89.279	173.7875
138.000000	89.162	173.8145
140.000000	89.118	173.6788
143.000000	88.956	173.6685
145.000000	88.867	173.7070
147.500000	88.735	173.6927
150.000000	88.596	173.8809
152.500000	88.483	174.1310
155.000000	88.380	174.9256
157.500000	88.158	174.7040
160.000000	88.110	175.4995
162.500000	87.845	177.1425
165.000000	87.736	178.4653
167.500000	87.952	179.5494
170.000000	88.014	-179.5597
172.500000	88.036	-179.1763
175.000000	88.081	-179.2348
177.500000	88.147	-179.8918
180.000000	88.198	178.5533
182.500000	88.109	-179.6356
185.000000	88.178	179.6304
187.500000	87.959	-179.9372
190.000000	87.856	-178.7383
192.500000	87.976	-178.8485
195.000000	87.878	-178.7903
197.500000	87.958	-177.8598
200.000000	87.870	-177.4167
203.000000	87.814	-177.7623
206.000000	87.799	-176.6614
209.000000	87.792	-176.2766
212.000000	87.814	-175.8937
214.000000	87.774	-175.7545
218.000000	87.767	-175.0757
220.000000	87.777	-174.3369
224.000000	87.719	-174.8596
227.000000	87.739	-174.0290
230.000000	87.797	-173.5509
233.000000	87.814	-173.3109
236.000000	87.816	-172.9687
240.000000	87.732	-172.4321
243.000000	87.804	-172.0879
247.000000	87.811	-171.4581
250.000000	87.798	-171.0554
254.000000	87.853	-171.0118
258.000000	87.873	-170.7178
262.000000	87.910	-170.1631
265.000000	87.931	-169.9534
269.000000	87.922	-169.5016
272.000000	87.957	-169.5051
276.000000	87.989	-168.6762
280.000000	87.975	-168.9275
285.000000	88.016	-168.6509
290.000000	88.035	-168.0228
295.000000	88.053	-167.5130
300.000000	88.091	-167.4586
304.000000	88.080	-167.2280
307.000000	88.126	-166.8247
311.000000	88.132	-166.9768
315.000000	88.148	-166.5736
320.000000	88.166	-166.2602
325.000000	88.165	-166.1745
330.000000	88.167	-165.8740
335.000000	88.189	-165.5545
340.000000	88.167	-165.3606
345.000000	88.208	-164.8668
350.000000	88.212	-164.4264
355.000000	88.260	-164.2574
360.000000	88.287	-163.7408
365.000000	88.320	-163.7286
370.000000	88.356	-163.3746
375.000000	88.375	-163.2623
382.000000	88.403	-162.9134
387.000000	88.417	-162.7149
395.000000	88.448	-162.5653
400.000000	88.482	-162.2424
406.000000	88.484	-162.1196
412.000000	88.514	-161.7388
418.000000	88.526	-161.7293
425.000000	88.561	-161.0667
431.000000	88.563	-161.0301
437.000000	88.573	-160.7367
444.000000	88.569	-160.5669
450.000000	88.601	-160.3360
455.000000	88.631	-160.1615
462.000000	88.634	-159.7591
468.000000	88.637	-159.5830
475.000000	88.679	-159.1970
482.000000	88.652	-158.9305
487.000000	88.698	-158.7098
494.000000	88.712	-158.5514
500.000000	88.717	-158.2711
508.000000	88.755	-157.9490
515.000000	88.769	-157.5651
522.000000	88.803	-157.2778
530.000000	88.821	-156.9701
538.000000	88.828	-156.6830
545.000000	88.841	-156.4290
552.000000	88.855	-156.1934
560.000000	88.891	-155.8288
570.000000	88.915	-155.4683
580.000000	88.934	-155.0496
590.000000	88.965	-154.6347
600.000000	88.984	-154.2024
608.000000	89.052	-154.1066
615.000000	89.020	-153.7575
622.000000	89.045	-153.4496
630.000000	89.052	-153.1740
640.000000	89.087	-152.8176
650.000000	89.100	-152.4144
660.000000	89.131	-152.0439
670.000000	89.148	-151.6205
680.000000	89.177	-151.3195
690.000000	89.197	-150.9315
700.000000	89.214	-150.5500
710.000000	89.222	-150.1357
720.000000	89.247	-149.7605
730.000000	89.255	-149.3278
740.000000	89.281	-149.0291
750.000000	89.295	-148.6616
762.000000	89.320	-148.1559
775.000000	89.335	-147.6544
788.000000	89.359	-147.1319
800.000000	89.352	-146.4358
812.000000	89.399	-146.0439
825.000000	89.436	-145.4767
838.000000	89.458	-144.9325
850.000000	89.479	-144.5085
862.000000	89.517	-143.8525
875.000000	89.559	-143.5057
885.000000	89.583	-142.9750
900.000000	89.626	-142.2378
912.000000	89.670	-141.7815
925.000000	89.697	-141.2627
938.000000	89.736	-140.6703
950.000000	89.796	-140.2836
962.000000	89.836	-139.8758
975.000000	89.899	-139.4518
988.000000	89.938	-138.9615
1000.000000	89.994	-138.4612
1015.000000	90.074	-137.9808
1030.000000	90.116	-137.5060
1044.000000	90.185	-137.1680
1060.000000	90.233	-136.6116
1075.000000	90.308	-136.0484
1090.000000	90.350	-135.6401
1106.000000	90.385	-135.1576
1120.000000	90.413	-134.5825
1138.000000	90.451	-134.0560
1150.000000	90.471	-133.6704
1172.000000	90.517	-133.0458
1180.000000	90.533	-132.6932
1206.000000	90.605	-131.7393
1220.000000	90.651	-131.2176
1241.000000	90.764	-130.3501
1250.000000	90.823	-130.0302
1265.000000	90.895	-129.4138
1280.000000	90.976	-128.8540
1315.000000	91.193	-127.4487
1320.000000	91.228	-127.2719
1340.000000	91.361	-126.5126
1360.000000	91.535	-125.8217
1380.000000	91.685	-125.0715
1400.000000	91.829	-124.5757
1430.000000	92.054	-123.5978
1450.000000	92.207	-123.0561
1475.000000	92.398	-122.4600
1500.000000	92.587	-121.8221
1525.000000	92.772	-121.3081
1550.000000	92.922	-120.8139
1575.000000	93.070	-120.3177
1600.000000	93.243	-119.8012
1625.000000	93.362	-119.3518
1650.000000	93.510	-118.9407
1675.000000	93.654	-118.5749
1700.000000	93.805	-118.0653
1725.000000	93.939	-117.6166
1750.000000	94.077	-117.2370
1775.000000	94.218	-116.8323
1800.000000	94.357	-116.4680
1825.000000	94.500	-116.0794
1850.000000	94.644	-115.6944
1875.000000	94.786	-115.3047
1900.000000	94.924	-115.0061
1925.000000	95.070	-114.7248
1950.000000	95.216	-114.5590
1975.000000	95.351	-114.4222
2000.000000	95.494	-114.3141
2030.000000	95.662	-114.2842
2060.000000	95.837	-114.3119
2090.000000	96.007	-114.3251
2120.000000	96.175	-114.4709
2140.000000	96.299	-114.5357
2180.000000	96.535	-114.8271
2200.000000	96.649	-114.9820
2240.000000	96.885	-115.4482
2270.000000	97.064	-115.8756
2300.000000	97.235	-116.2822
2330.000000	97.406	-116.8170
2360.000000	97.580	-117.3751
2400.000000	97.816	-118.1965
2430.000000	97.982	-118.9535
2470.000000	98.204	-120.0203
2500.000000	98.371	-120.8360
2540.000000	98.584	-122.0072
2580.000000	98.792	-123.2404
2620.000000	98.990	-124.6337
2650.000000	99.133	-125.7774
2690.000000	99.319	-127.3515
2720.000000	99.446	-128.5262
2760.000000	99.611	-130.2539
2800.000000	99.762	-132.0337
2850.000000	99.928	-134.3928
2900.000000	100.077	-136.8223
2950.000000	100.197	-139.4047
3000.000000	100.286	-141.9555
3040.000000	100.340	-144.0535
3070.000000	100.374	-145.5957
3110.000000	100.388	-147.6606
3150.000000	100.395	-149.7267
3200.000000	100.387	-152.2026
3250.000000	100.339	-154.7193
3300.000000	100.289	-157.1116
3350.000000	100.206	-159.4198
3400.000000	100.107	-161.5864
3450.000000	100.003	-163.6282
3500.000000	99.887	-165.4678
3550.000000	99.781	-167.1955
3600.000000	99.682	-168.7446
3650.000000	99.607	-170.1930
3700.000000	99.534	-171.6507
3750.000000	99.449	-173.2269
3820.000000	99.314	-175.3436
3870.000000	99.201	-176.7769
3950.000000	98.987	-178.8987
4000.000000	98.856	179.9675
4060.000000	98.690	178.6896
4120.000000	98.517	177.5476
4180.000000	98.355	176.4205
4250.000000	98.146	175.3909
4310.000000	97.958	174.4345
4370.000000	97.768	173.8953
4440.000000	97.559	173.4420
4500.000000	97.390	173.0433
4550.000000	97.257	172.7718
4620.000000	97.120	172.5862
4680.000000	96.991	172.3401
4750.000000	96.886	172.5232
4820.000000	96.770	172.1635
4870.000000	96.659	171.9088
4940.000000	96.570	171.6176
5000.000000	96.487	171.7839
5080.000000	96.299	171.8669
5150.000000	96.222	171.6484
5220.000000	96.144	171.4758
5300.000000	96.017	171.0889
5380.000000	95.815	171.4879
5450.000000	95.805	171.2135
5520.000000	95.769	170.9523
5600.000000	95.642	171.4992
5700.000000	95.561	170.7120
5800.000000	95.330	171.1301
5900.000000	95.178	171.5799
6000.000000	95.067	171.0314
6080.000000	95.044	170.5101
6150.000000	94.906	171.3720
6220.000000	94.764	171.3002
6300.000000	94.722	170.8066
6400.000000	94.649	172.3519
6500.000000	94.554	172.8152
6600.000000	94.396	172.8725
6700.000000	94.384	172.8289
6800.000000	94.343	174.6764
6900.000000	94.288	173.6123
7000.000000	94.468	174.6053
7100.000000	94.475	174.7295
7200.000000	94.538	174.1606
7300.000000	94.685	174.5095
7400.000000	94.763	174.2754
7500.000000	94.777	173.4962
7620.000000	95.120	172.7700
7750.000000	95.228	172.6664
7880.000000	95.228	170.0888
8000.000000	95.147	169.2513
8120.000000	95.208	167.1897
8250.000000	95.026	164.6365
8380.000000	94.653	162.9326
8500.000000	94.531	160.8096
8620.000000	94.203	158.2169
8750.000000	93.791	154.4732
8850.000000	93.411	153.2300
9000.000000	92.765	150.6726
9120.000000	92.256	148.4964
9250.000000	91.271	146.8428
9380.000000	90.546	148.0537
9500.000000	89.649	147.2122
9620.000000	88.986	147.3661
9750.000000	87.934	148.7571
9880.000000	87.418	151.4822
10000.000000	86.567	154.4310
10150.000000	86.001	156.8537
10300.000000	85.193	158.2430
10440.000000	84.381	161.8767
10600.000000	84.060	167.0073
10750.000000	83.328	169.4581
10900.000000	83.220	174.6621
11060.000000	82.757	179.2869
11200.000000	82.241	-177.4461
11380.000000	81.991	-173.6640
11500.000000	81.694	-173.0168
11720.000000	80.992	-166.1630
11800.000000	81.542	-166.0327
12060.000000	81.115	-160.3936
12200.000000	80.663	-153.8333
12410.000000	80.873	-152.5729
12500.000000	81.483	-148.8566
12650.000000	81.113	-145.9724
12800.000000	80.914	-141.2766
13150.000000	81.043	-142.3213
13200.000000	81.070	-141.7138
13400.000000	81.534	-134.8146
13600.000000	81.595	-136.0778
13800.000000	82.003	-133.8845
14000.000000	82.662	-135.7238
14300.000000	83.266	-132.7993
14500.000000	83.948	-129.8380
14750.000000	85.136	-133.3134
15000.000000	85.623	-140.2877
15250.000000	86.096	-146.1129
15500.000000	87.038	-155.4820
15750.000000	86.283	-165.9080
16000.000000	85.441	-178.8738
16250.000000	85.987	168.3565
16500.000000	83.536	171.7280
16750.000000	82.988	158.7495
17000.000000	81.754	154.7455
17250.000000	80.623	153.1173
17500.000000	81.156	137.3904
17750.000000	79.112	140.0401
18000.000000	80.034	134.2828
18250.000000	80.149	134.1202
18500.000000	78.271	117.5527
18750.000000	80.108	103.7231
19000.000000	78.009	97.6672
19250.000000	80.434	61.4236
19500.000000	79.553	23.6715
19750.000000	77.411	-8.2762
