* Measurement data measured by REW V5.20.4
* Source: Headset (2- USB-C to 3.5mm Headphone Jack Adapter), MICROPHONE (Master Volume), R, volume: 0.260
* Format: 256k Log Swept Sine, 1 sweep at -6.0 dBFS with no timing reference
* Dated: 13 Jan, 2023 9:02:35 PM
* REW Settings:
*  C-weighting compensation: Off
*  Target level: 75.0 dB
* Note: 
* Measurement: Moondrop Sparks R
* Smoothing: None
* Frequency Step: 1/48 octave
* Start Frequency: 20.000 Hz
*
* Freq(Hz)	SPL(dB)	Phase(degrees)
20.000000	90.765	-109.0653
20.299999	90.851	-110.2371
20.600000	90.930	-111.3934
20.900000	91.002	-112.5202
21.200001	91.069	-113.6011
21.400000	91.112	-114.2916
21.799999	91.201	-115.6103
22.000000	91.248	-116.2491
22.400000	91.345	-117.5194
22.700001	91.419	-118.4909
23.000000	91.491	-119.4890
23.299999	91.556	-120.5006
23.600000	91.614	-121.5043
24.000000	91.684	-122.7964
24.299999	91.733	-123.7203
24.700001	91.801	-124.9117
25.000000	91.853	-125.8055
25.400000	91.920	-127.0309
25.799999	91.974	-128.2886
26.200001	92.008	-129.5173
26.500000	92.023	-130.3694
26.900000	92.033	-131.3708
27.200001	92.041	-132.0224
27.600000	92.064	-132.8030
28.000000	92.104	-133.5648
28.500000	92.166	-134.5943
29.000000	92.225	-135.7352
29.500000	92.268	-136.9261
30.000000	92.295	-138.0844
30.400000	92.313	-138.9610
30.700001	92.326	-139.5918
31.100000	92.343	-140.4125
31.500000	92.361	-141.2253
32.000000	92.382	-142.2421
32.500000	92.399	-143.2568
33.000000	92.412	-144.2593
33.500000	92.418	-145.2395
34.000000	92.421	-146.1787
34.500000	92.431	-147.0625
35.000000	92.449	-147.9171
35.500000	92.474	-148.8178
36.000000	92.492	-149.8082
36.500000	92.486	-150.8156
37.000000	92.458	-151.6711
37.500000	92.430	-152.2788
38.200001	92.440	-152.9330
38.700001	92.473	-153.5384
39.500000	92.497	-154.8093
40.000000	92.481	-155.5428
40.599998	92.461	-156.2360
41.200001	92.460	-156.9006
41.799999	92.460	-157.6898
42.500000	92.431	-158.6491
43.099998	92.391	-159.3302
43.700001	92.360	-159.9030
44.400002	92.339	-160.5675
45.000000	92.324	-161.1680
45.500000	92.312	-161.6750
46.200001	92.296	-162.3891
46.799999	92.283	-162.9900
47.500000	92.274	-163.6611
48.200001	92.276	-164.3961
48.700001	92.272	-165.0158
49.400002	92.229	-165.8921
50.000000	92.165	-166.4071
50.799999	92.108	-166.6701
51.500000	92.115	-166.9036
52.200001	92.128	-167.4237
53.000000	92.101	-168.1042
53.799999	92.057	-168.5874
54.500000	92.030	-168.9674
55.200001	92.007	-169.3746
56.000000	91.993	-169.8650
57.000000	91.976	-170.7337
58.000000	91.913	-171.5150
59.000000	91.881	-172.0338
60.000000	91.841	-172.6758
60.799999	91.805	-172.9243
61.500000	91.804	-173.1602
62.200001	91.782	-173.5550
63.000000	91.724	-173.7490
64.000000	91.723	-173.8726
65.000000	91.706	-174.6125
66.000000	91.630	-175.2677
67.000000	91.557	-175.7648
68.000000	91.549	-176.1660
69.000000	91.527	-177.3747
70.000000	91.351	-177.6992
71.000000	91.404	-177.2443
72.000000	91.425	-178.1158
73.000000	91.358	-178.0629
74.000000	91.404	-178.4503
75.000000	91.294	-178.9612
76.199997	91.272	-178.8063
77.500000	91.227	-179.6494
78.800003	91.138	-179.9764
80.000000	91.118	179.7893
81.199997	91.093	179.3589
82.500000	91.073	179.1401
83.800003	91.041	178.6672
85.000000	90.990	178.5061
86.199997	90.972	178.2213
87.500000	90.912	177.7246
88.500000	90.869	177.6050
90.000000	90.837	177.1845
91.199997	90.806	176.9450
92.500000	90.751	176.5225
93.800003	90.701	176.5135
95.000000	90.675	176.1857
96.199997	90.618	176.0284
97.500000	90.590	175.7663
98.800003	90.539	175.4829
100.000000	90.493	175.2876
101.500000	90.460	175.2115
103.000000	90.419	174.7996
104.400002	90.370	174.6783
106.000000	90.335	174.2256
107.500000	90.239	174.0729
109.000000	90.219	173.9074
110.599998	90.144	173.6331
112.000000	90.079	173.5714
113.800003	90.024	173.5511
115.000000	90.001	173.2857
117.199997	89.988	173.0661
118.000000	89.931	172.5875
120.599998	89.839	172.6383
122.000000	89.819	172.8336
124.099998	89.719	172.7312
125.000000	89.714	172.5453
126.500000	89.644	172.4547
128.000000	89.550	172.1669
131.500000	89.414	171.9185
132.000000	89.402	171.9300
134.000000	89.334	171.8986
136.000000	89.271	171.7892
138.000000	89.199	171.7731
140.000000	89.061	171.5409
143.000000	88.983	171.5786
145.000000	88.909	171.7371
147.500000	88.737	171.8729
150.000000	88.669	171.9683
152.500000	88.545	172.1299
155.000000	88.385	172.5072
157.500000	88.165	173.4807
160.000000	88.083	174.8154
162.500000	88.182	175.5458
165.000000	88.126	177.6768
167.500000	88.236	177.3050
170.000000	88.327	177.3396
172.500000	88.334	177.2840
175.000000	88.328	177.3557
177.500000	88.410	177.6029
180.000000	88.392	178.2103
182.500000	88.414	178.1237
185.000000	88.253	179.1777
187.500000	88.088	179.2091
190.000000	88.114	178.3104
192.500000	88.106	178.0089
195.000000	88.110	178.8080
197.500000	88.106	179.3409
200.000000	88.057	179.4484
203.000000	88.062	179.3715
206.000000	88.085	179.9220
209.000000	88.073	-179.2722
212.000000	88.015	-179.0612
214.000000	87.977	-178.8128
218.000000	88.007	-178.2625
220.000000	87.954	-177.7928
224.000000	88.152	-178.1979
227.000000	88.055	-177.1212
230.000000	88.273	-177.0988
233.000000	88.124	-176.1721
236.000000	88.076	-176.7573
240.000000	88.019	-175.1826
243.000000	88.087	-175.6003
247.000000	88.115	-175.6087
250.000000	88.146	-175.3832
254.000000	88.221	-175.1379
258.000000	88.232	-174.6593
262.000000	88.240	-174.1724
265.000000	88.209	-174.2660
269.000000	88.241	-173.7659
272.000000	88.296	-173.6695
276.000000	88.311	-173.0947
280.000000	88.337	-173.5473
285.000000	88.345	-173.0685
290.000000	88.371	-172.8974
295.000000	88.423	-172.6478
300.000000	88.385	-172.4746
304.000000	88.464	-172.5911
307.000000	88.442	-172.5248
311.000000	88.568	-172.3660
315.000000	88.526	-172.1653
320.000000	88.526	-171.8469
325.000000	88.581	-171.7267
330.000000	88.547	-171.7409
335.000000	88.537	-171.4283
340.000000	88.583	-171.3520
345.000000	88.516	-170.9098
350.000000	88.592	-170.7781
355.000000	88.641	-170.3799
360.000000	88.726	-170.4941
365.000000	88.658	-169.7021
370.000000	88.721	-169.9406
375.000000	88.723	-170.1129
382.000000	88.816	-169.8226
387.000000	88.787	-169.6828
395.000000	88.850	-169.5184
400.000000	88.798	-169.3669
406.000000	88.908	-169.2740
412.000000	88.869	-169.1340
418.000000	88.910	-169.0348
425.000000	88.945	-168.8634
431.000000	88.975	-168.9036
437.000000	89.004	-168.5482
444.000000	88.973	-168.5303
450.000000	88.972	-168.3644
455.000000	88.957	-168.3553
462.000000	88.992	-168.1956
468.000000	89.003	-168.1550
475.000000	89.010	-167.8041
482.000000	89.011	-167.7052
487.000000	89.060	-167.5376
494.000000	89.056	-167.4568
500.000000	89.062	-167.0741
508.000000	89.089	-167.1877
515.000000	89.106	-166.9192
522.000000	89.115	-166.6581
530.000000	89.146	-166.6399
538.000000	89.162	-166.4762
545.000000	89.174	-166.1994
552.000000	89.166	-166.0858
560.000000	89.190	-165.8915
570.000000	89.249	-165.5121
580.000000	89.239	-165.4221
590.000000	89.231	-165.2312
600.000000	89.271	-165.0344
608.000000	89.259	-164.6151
615.000000	89.312	-164.4798
622.000000	89.286	-164.2609
630.000000	89.313	-164.1745
640.000000	89.315	-163.7741
650.000000	89.364	-163.5714
660.000000	89.368	-163.2706
670.000000	89.368	-163.0589
680.000000	89.377	-162.8459
690.000000	89.390	-162.6750
700.000000	89.405	-162.3492
710.000000	89.409	-161.9339
720.000000	89.438	-161.8099
730.000000	89.434	-161.5077
740.000000	89.437	-161.1662
750.000000	89.459	-160.9216
762.000000	89.474	-160.6486
775.000000	89.472	-160.1974
788.000000	89.473	-159.6477
800.000000	89.391	-159.9866
812.000000	89.506	-159.0134
825.000000	89.529	-158.5475
838.000000	89.552	-157.9854
850.000000	89.547	-157.8104
862.000000	89.576	-157.3372
875.000000	89.617	-156.9403
885.000000	89.639	-156.4100
900.000000	89.675	-156.1514
912.000000	89.695	-155.6290
925.000000	89.734	-155.2781
938.000000	89.799	-154.7033
950.000000	89.826	-154.4731
962.000000	89.855	-154.0040
975.000000	89.923	-153.5507
988.000000	89.961	-153.3162
1000.000000	90.004	-153.3023
1015.000000	90.045	-152.8618
1030.000000	90.107	-152.3911
1044.000000	90.144	-151.9081
1060.000000	90.191	-151.6373
1075.000000	90.253	-151.4514
1090.000000	90.272	-151.0147
1106.000000	90.335	-150.7068
1120.000000	90.378	-150.3899
1138.000000	90.367	-149.8552
1150.000000	90.388	-149.7013
1172.000000	90.457	-149.1620
1180.000000	90.457	-148.9943
1206.000000	90.526	-148.1876
1220.000000	90.588	-147.7646
1241.000000	90.679	-147.2108
1250.000000	90.708	-146.9751
1265.000000	90.794	-146.4354
1280.000000	90.906	-145.9523
1315.000000	91.108	-144.8031
1320.000000	91.149	-144.6658
1340.000000	91.274	-144.0305
1360.000000	91.463	-143.5315
1380.000000	91.604	-143.0376
1400.000000	91.731	-142.2644
1430.000000	91.966	-141.8553
1450.000000	92.126	-141.4083
1475.000000	92.306	-140.9875
1500.000000	92.484	-140.5592
1525.000000	92.679	-140.1737
1550.000000	92.836	-139.8403
1575.000000	92.986	-139.5186
1600.000000	93.053	-139.8170
1625.000000	93.283	-138.9147
1650.000000	93.437	-138.6440
1675.000000	93.589	-138.3698
1700.000000	93.731	-138.1362
1725.000000	93.880	-137.8717
1750.000000	94.031	-137.7064
1775.000000	94.180	-137.5575
1800.000000	94.309	-137.2346
1825.000000	94.487	-137.1723
1850.000000	94.648	-136.9949
1875.000000	94.789	-136.8935
1900.000000	94.932	-136.6936
1925.000000	95.099	-136.6643
1950.000000	95.256	-136.5539
1975.000000	95.401	-136.4288
2000.000000	95.566	-136.2866
2030.000000	95.743	-136.4442
2060.000000	95.935	-136.3392
2090.000000	96.118	-136.4402
2120.000000	96.311	-136.4917
2140.000000	96.438	-136.5872
2180.000000	96.711	-136.8568
2200.000000	96.838	-136.9672
2240.000000	97.082	-137.2761
2270.000000	97.276	-137.6739
2300.000000	97.472	-138.0845
2330.000000	97.666	-138.4650
2360.000000	97.855	-138.9639
2400.000000	98.162	-139.7964
2430.000000	98.286	-140.3509
2470.000000	98.532	-141.2481
2500.000000	98.702	-141.9117
2540.000000	98.935	-142.9377
2580.000000	99.144	-144.0847
2620.000000	99.360	-145.2411
2650.000000	99.502	-146.2494
2690.000000	99.682	-147.6524
2720.000000	99.811	-148.7636
2760.000000	99.967	-150.2994
2800.000000	100.096	-151.8562
2850.000000	100.239	-153.8885
2900.000000	100.354	-155.8832
2950.000000	100.427	-157.9303
3000.000000	100.465	-159.9048
3040.000000	100.504	-161.5000
3070.000000	100.493	-162.6442
3110.000000	100.472	-164.1594
3150.000000	100.443	-165.5896
3200.000000	100.355	-166.9908
3250.000000	100.289	-168.9872
3300.000000	100.188	-170.4673
3350.000000	100.067	-171.6842
3400.000000	99.933	-172.8494
3450.000000	99.821	-173.7698
3500.000000	99.722	-174.5570
3550.000000	99.626	-175.1717
3600.000000	99.556	-175.9001
3650.000000	99.490	-176.6885
3700.000000	99.398	-177.5353
3750.000000	99.302	-178.3332
3820.000000	99.145	-179.2571
3870.000000	99.034	-179.8565
3950.000000	98.839	179.5463
4000.000000	98.704	178.8936
4060.000000	98.589	178.8771
4120.000000	98.470	178.5718
4180.000000	98.340	178.3979
4250.000000	98.191	178.1570
4310.000000	98.044	177.8668
4370.000000	97.920	177.7980
4440.000000	97.744	177.7818
4500.000000	97.653	177.9725
4550.000000	97.514	178.2703
4620.000000	97.447	178.7021
4680.000000	97.339	178.8925
4750.000000	97.289	179.4297
4820.000000	97.242	179.6501
4870.000000	97.178	-179.9250
4940.000000	97.124	-179.8307
5000.000000	97.092	-179.5488
5080.000000	97.007	-179.6415
5150.000000	96.988	-179.4501
5220.000000	96.907	-179.4450
5300.000000	96.891	-179.1007
5380.000000	96.890	-179.2550
5450.000000	96.765	-179.2041
5520.000000	96.755	-179.3269
5600.000000	96.647	-179.1395
5700.000000	96.616	-179.4087
5800.000000	96.458	-179.0369
5900.000000	96.418	-179.7927
6000.000000	96.359	179.3056
6080.000000	96.202	179.7091
6150.000000	96.266	179.7147
6220.000000	96.189	-179.8906
6300.000000	96.067	179.7561
6400.000000	95.870	179.6567
6500.000000	95.670	179.0572
6600.000000	95.532	179.1535
6700.000000	95.479	179.1480
6800.000000	95.387	179.5657
6900.000000	95.322	179.3189
7000.000000	95.229	-179.8237
7100.000000	95.298	179.9312
7200.000000	95.192	179.9397
7300.000000	95.373	-179.7702
7400.000000	95.377	179.4590
7500.000000	95.338	179.8424
7620.000000	95.416	179.3672
7750.000000	95.535	179.4587
7880.000000	95.497	178.8705
8000.000000	95.483	177.8875
8120.000000	95.295	176.1581
8250.000000	95.144	174.5677
8380.000000	95.039	173.6094
8500.000000	94.840	170.8275
8620.000000	94.570	169.1913
8750.000000	94.424	166.8056
8850.000000	93.932	164.1914
9000.000000	93.369	161.4821
9120.000000	92.693	159.7094
9250.000000	92.038	156.3918
9380.000000	91.246	155.6042
9500.000000	90.384	154.9868
9620.000000	89.590	156.9048
9750.000000	88.737	155.2474
9880.000000	87.984	156.7040
10000.000000	87.242	157.6683
10150.000000	86.487	161.3479
10300.000000	85.631	163.3194
10440.000000	85.057	164.4346
10600.000000	84.315	171.0013
10750.000000	83.754	172.1202
10900.000000	83.297	177.6824
11060.000000	82.831	178.4364
11200.000000	82.599	-175.1111
11380.000000	81.613	-173.9494
11500.000000	81.582	-169.9733
11720.000000	81.355	-164.8626
11800.000000	81.278	-164.1791
12060.000000	80.832	-159.9848
12200.000000	80.610	-154.6916
12410.000000	81.025	-152.0693
12500.000000	80.517	-154.5688
12650.000000	80.596	-148.6852
12800.000000	81.149	-149.5975
13150.000000	80.368	-148.3229
13200.000000	79.822	-145.0231
13400.000000	80.259	-145.8986
13600.000000	81.336	-139.4865
13800.000000	80.713	-139.1919
14000.000000	81.611	-138.7598
14300.000000	82.188	-137.4960
14500.000000	81.877	-140.5601
14750.000000	82.994	-141.1011
15000.000000	83.840	-141.4293
15250.000000	84.289	-153.0830
15500.000000	85.402	-161.2739
15750.000000	85.568	-172.7106
16000.000000	85.129	178.2763
16250.000000	84.690	167.6924
16500.000000	83.376	154.7524
16750.000000	82.221	144.0253
17000.000000	80.408	133.9495
17250.000000	78.417	138.8379
17500.000000	79.586	121.3114
17750.000000	79.565	112.5081
18000.000000	77.140	118.8492
18250.000000	78.039	101.0582
18500.000000	78.947	81.9951
18750.000000	77.912	72.4105
19000.000000	78.862	59.5357
19250.000000	79.935	32.6091
19500.000000	79.306	1.4134
19750.000000	75.568	-47.2963
