* Measurement data measured by REW V5.20.4
* Source: Microphone (2- KM-HIFI-384KHZ), MICROPHONE (Master Volume), R, volume: 0.250
* Format: 256k Log Swept Sine, 1 sweep at -6.0 dBFS with no timing reference
* Dated: 15 Feb, 2022 1:11:37 PM
* REW Settings:
*  C-weighting compensation: Off
*  Target level: 75.0 dB
* Note: 
* Measurement: Starsea Vocal R
* Smoothing: None
* Frequency Step: 1/48 octave
* Start Frequency: 20.000 Hz
*
* Freq(Hz)	SPL(dB)	Phase(degrees)
20.000000	97.214	169.2025
20.299999	97.215	168.9695
20.600000	97.208	168.6909
20.900000	97.190	168.4225
21.200001	97.166	168.2079
21.400000	97.153	168.1053
21.799999	97.139	167.9523
22.000000	97.139	167.8632
22.400000	97.150	167.5626
22.700001	97.151	167.2299
23.000000	97.135	166.8586
23.299999	97.100	166.5401
23.600000	97.057	166.3515
24.000000	97.012	166.3293
24.299999	97.004	166.3965
24.700001	97.030	166.4087
25.000000	97.063	166.2520
25.400000	97.096	165.8041
25.799999	97.091	165.2547
26.200001	97.053	164.8117
26.500000	97.017	164.6161
26.900000	96.976	164.5194
27.200001	96.958	164.4941
27.600000	96.949	164.4308
28.000000	96.948	164.2979
28.500000	96.944	164.0503
29.000000	96.934	163.7527
29.500000	96.912	163.4017
30.000000	96.870	163.0678
30.400000	96.827	162.8887
30.700001	96.794	162.8362
31.100000	96.759	162.8468
31.500000	96.741	162.8746
32.000000	96.732	162.8315
32.500000	96.722	162.6757
33.000000	96.704	162.4752
33.500000	96.678	162.2586
34.000000	96.648	162.0110
34.500000	96.612	161.7274
35.000000	96.560	161.4821
35.500000	96.502	161.3567
36.000000	96.456	161.3579
36.500000	96.433	161.3851
37.000000	96.430	161.3117
37.500000	96.429	161.0794
38.200001	96.399	160.6247
38.700001	96.355	160.3590
39.500000	96.287	160.1442
40.000000	96.259	160.0533
40.599998	96.231	159.9089
41.200001	96.202	159.7416
41.799999	96.169	159.5757
42.500000	96.123	159.4014
43.099998	96.080	159.3109
43.700001	96.041	159.2843
44.400002	96.007	159.2442
45.000000	95.979	159.1357
45.500000	95.947	159.0192
46.200001	95.895	158.9023
46.799999	95.856	158.8488
47.500000	95.819	158.7408
48.200001	95.777	158.5352
48.700001	95.736	158.3959
49.400002	95.674	158.3373
50.000000	95.639	158.3726
50.799999	95.617	158.3041
51.500000	95.590	158.1125
52.200001	95.547	157.9633
53.000000	95.500	157.8845
53.799999	95.458	157.8094
54.500000	95.418	157.7404
55.200001	95.376	157.6905
56.000000	95.329	157.6566
57.000000	95.274	157.5875
58.000000	95.212	157.5165
59.000000	95.157	157.4903
60.000000	95.103	157.4188
60.799999	95.066	157.3724
61.500000	95.037	157.2784
62.200001	94.994	157.2029
63.000000	94.952	157.2724
64.000000	94.934	157.2025
65.000000	94.871	157.0140
66.000000	94.818	157.1413
67.000000	94.787	157.0507
68.000000	94.723	157.0308
69.000000	94.686	157.0298
70.000000	94.617	156.8929
71.000000	94.553	157.1002
72.000000	94.532	157.1029
73.000000	94.476	157.0377
74.000000	94.441	157.1044
75.000000	94.399	157.0052
76.199997	94.353	157.0488
77.500000	94.280	156.8864
78.800003	94.216	157.1504
80.000000	94.173	157.2040
81.199997	94.150	157.2846
82.500000	94.081	157.1351
83.800003	94.037	157.2711
85.000000	93.985	157.2220
86.199997	93.950	157.2150
87.500000	93.867	157.2179
88.500000	93.846	157.4293
90.000000	93.794	157.4598
91.199997	93.779	157.5204
92.500000	93.720	157.5148
93.800003	93.691	157.5256
95.000000	93.624	157.5758
96.199997	93.598	157.7034
97.500000	93.557	157.7470
98.800003	93.514	157.6733
100.000000	93.453	157.9131
101.500000	93.441	157.9833
103.000000	93.393	158.0753
104.400002	93.353	158.1168
106.000000	93.305	158.2318
107.500000	93.261	158.3292
109.000000	93.216	158.4648
110.599998	93.177	158.5100
112.000000	93.136	158.6294
113.800003	93.089	158.7426
115.000000	93.061	158.7936
117.199997	93.001	158.9466
118.000000	92.981	158.9846
120.599998	92.920	159.1705
122.000000	92.882	159.2608
124.099998	92.836	159.3986
125.000000	92.815	159.4773
126.500000	92.787	159.5887
128.000000	92.752	159.6692
131.500000	92.680	159.9307
132.000000	92.667	159.9559
134.000000	92.629	160.1248
136.000000	92.591	160.2744
138.000000	92.550	160.4541
140.000000	92.513	160.5512
143.000000	92.465	160.7775
145.000000	92.427	160.9098
147.500000	92.385	161.1829
150.000000	92.336	161.6746
152.500000	92.284	161.5245
155.000000	92.242	161.6503
157.500000	92.206	161.7780
160.000000	92.162	162.0065
162.500000	92.116	162.1581
165.000000	92.072	162.3132
167.500000	92.034	162.4823
170.000000	91.993	162.6633
172.500000	91.959	162.8402
175.000000	91.924	163.0016
177.500000	91.892	163.1594
180.000000	91.862	163.3493
182.500000	91.833	163.5124
185.000000	91.801	163.6785
187.500000	91.772	163.8489
190.000000	91.743	164.0167
192.500000	91.715	164.1714
195.000000	91.692	164.3431
197.500000	91.670	164.4984
200.000000	91.647	164.6661
203.000000	91.618	164.8540
206.000000	91.592	165.0486
209.000000	91.567	165.2453
212.000000	91.544	165.4379
214.000000	91.526	165.5591
218.000000	91.487	165.8124
220.000000	91.467	165.9226
224.000000	91.432	166.1850
227.000000	91.405	166.3750
230.000000	91.377	166.5550
233.000000	91.351	166.7375
236.000000	91.324	166.9188
240.000000	91.291	167.1476
243.000000	91.269	167.3446
247.000000	91.237	167.5626
250.000000	91.193	167.6748
254.000000	91.195	167.9544
258.000000	91.170	168.2138
262.000000	91.140	168.4249
265.000000	91.120	168.6091
269.000000	91.092	168.8316
272.000000	91.072	168.9922
276.000000	91.046	169.2258
280.000000	91.020	169.4543
285.000000	90.981	169.7258
290.000000	90.949	170.0303
295.000000	90.913	170.3120
300.000000	90.882	170.5783
304.000000	90.856	170.8165
307.000000	90.834	170.9937
311.000000	90.805	171.2222
315.000000	90.779	171.4722
320.000000	90.744	171.7623
325.000000	90.712	172.0807
330.000000	90.681	172.4346
335.000000	90.654	172.7881
340.000000	90.630	173.1172
345.000000	90.612	173.4609
350.000000	90.580	173.7207
355.000000	90.590	174.0560
360.000000	90.576	174.3390
365.000000	90.564	174.6066
370.000000	90.548	174.8668
375.000000	90.531	175.1547
382.000000	90.502	175.5276
387.000000	90.481	175.8413
395.000000	90.457	176.3888
400.000000	90.453	176.7808
406.000000	90.458	177.1712
412.000000	90.470	177.4846
418.000000	90.478	177.7063
425.000000	90.483	177.9194
431.000000	90.478	178.0921
437.000000	90.464	178.2452
444.000000	90.444	178.4373
450.000000	90.452	178.5068
455.000000	90.409	178.7700
462.000000	90.382	178.9846
468.000000	90.353	179.2018
475.000000	90.325	179.4481
482.000000	90.295	179.7466
487.000000	90.278	179.9562
494.000000	90.253	-179.7425
500.000000	90.234	-179.4708
508.000000	90.205	-179.1013
515.000000	90.185	-178.7675
522.000000	90.163	-178.4574
530.000000	90.139	-178.0777
538.000000	90.115	-177.6904
545.000000	90.094	-177.3268
552.000000	90.076	-177.0141
560.000000	90.055	-176.5921
570.000000	90.030	-176.0974
580.000000	90.006	-175.5929
590.000000	89.986	-175.0527
600.000000	89.965	-174.5197
608.000000	89.944	-174.1018
615.000000	89.928	-173.7354
622.000000	89.915	-173.3747
630.000000	89.896	-172.9400
640.000000	89.877	-172.3833
650.000000	89.859	-171.6818
660.000000	89.842	-171.2586
670.000000	89.825	-170.7214
680.000000	89.809	-170.1683
690.000000	89.795	-169.5497
700.000000	89.781	-168.9728
710.000000	89.765	-168.3938
720.000000	89.755	-167.8027
730.000000	89.748	-167.1825
740.000000	89.742	-166.5822
750.000000	89.725	-166.1136
762.000000	89.735	-165.2307
775.000000	89.734	-164.4372
788.000000	89.729	-163.6118
800.000000	89.736	-162.8574
812.000000	89.743	-162.0817
825.000000	89.757	-161.2421
838.000000	89.777	-160.4158
850.000000	89.802	-159.7302
862.000000	89.825	-158.8497
875.000000	89.859	-158.0006
885.000000	89.888	-157.3516
900.000000	89.946	-156.3744
912.000000	89.998	-155.5909
925.000000	90.065	-154.8165
938.000000	90.138	-154.0355
950.000000	90.223	-153.4231
962.000000	90.289	-152.7049
975.000000	90.391	-152.1176
988.000000	90.496	-151.5760
1000.000000	90.584	-151.1339
1015.000000	90.698	-150.6082
1030.000000	90.813	-150.1409
1044.000000	90.913	-149.8136
1060.000000	91.028	-149.4529
1075.000000	91.127	-149.1762
1090.000000	91.211	-148.8845
1106.000000	91.295	-148.6333
1120.000000	91.364	-148.4075
1138.000000	91.449	-148.1494
1150.000000	91.512	-147.9103
1172.000000	91.600	-147.6942
1180.000000	91.628	-147.5880
1206.000000	91.734	-147.2712
1220.000000	91.812	-147.0797
1241.000000	91.937	-146.8280
1250.000000	91.982	-146.7465
1265.000000	92.078	-146.5445
1280.000000	92.167	-146.3546
1315.000000	92.372	-145.8835
1320.000000	92.401	-145.8251
1340.000000	92.519	-145.5500
1360.000000	92.682	-145.2811
1380.000000	92.807	-145.0318
1400.000000	92.936	-144.7447
1430.000000	93.144	-144.3537
1450.000000	93.289	-144.0799
1475.000000	93.466	-143.8258
1500.000000	93.658	-143.5684
1525.000000	93.858	-143.3794
1550.000000	94.038	-143.3665
1575.000000	94.223	-143.3315
1600.000000	94.416	-143.4037
1625.000000	94.608	-143.6217
1650.000000	94.798	-144.0291
1675.000000	94.994	-144.5397
1700.000000	95.179	-145.2041
1725.000000	95.347	-146.0280
1750.000000	95.502	-146.9888
1775.000000	95.634	-148.1040
1800.000000	95.739	-149.2788
1825.000000	95.816	-150.5140
1850.000000	95.865	-151.7786
1875.000000	95.879	-153.0309
1900.000000	95.867	-154.2202
1925.000000	95.835	-155.3066
1950.000000	95.776	-156.3048
1975.000000	95.700	-157.1955
2000.000000	95.616	-157.9454
2030.000000	95.502	-158.6531
2060.000000	95.382	-159.1998
2090.000000	95.265	-159.5803
2120.000000	95.147	-159.8098
2140.000000	95.076	-159.8824
2180.000000	94.938	-159.9103
2200.000000	94.877	-159.8640
2240.000000	94.764	-159.6883
2270.000000	94.693	-159.5231
2300.000000	94.628	-159.3104
2330.000000	94.571	-159.0605
2360.000000	94.528	-158.8020
2400.000000	94.476	-158.4349
2430.000000	94.446	-158.1682
2470.000000	94.415	-157.8000
2500.000000	94.399	-157.5360
2540.000000	94.383	-157.2152
2580.000000	94.379	-156.9208
2620.000000	94.376	-156.6535
2650.000000	94.376	-156.4902
2690.000000	94.385	-156.2474
2720.000000	94.391	-156.1128
2760.000000	94.405	-155.9807
2800.000000	94.419	-155.8760
2850.000000	94.443	-155.8277
2900.000000	94.465	-155.8267
2950.000000	94.492	-155.9171
3000.000000	94.518	-156.0864
3040.000000	94.532	-156.3118
3070.000000	94.540	-156.5079
3110.000000	94.554	-156.8197
3150.000000	94.560	-157.2011
3200.000000	94.562	-157.7809
3250.000000	94.553	-158.4905
3300.000000	94.528	-159.3011
3350.000000	94.486	-160.2190
3400.000000	94.424	-161.2733
3450.000000	94.334	-162.4666
3500.000000	94.215	-163.7350
3550.000000	94.055	-165.0946
3600.000000	93.854	-166.5081
3650.000000	93.599	-167.9479
3700.000000	93.292	-169.3393
3750.000000	92.923	-170.6128
3820.000000	92.313	-172.1585
3870.000000	91.794	-172.8853
3950.000000	90.860	-173.1899
4000.000000	90.202	-172.7258
4060.000000	89.377	-171.3534
4120.000000	88.530	-168.7914
4180.000000	87.700	-165.0344
4250.000000	86.815	-158.9587
4310.000000	86.219	-152.2513
4370.000000	85.859	-144.6723
4440.000000	85.810	-135.2434
4500.000000	86.072	-127.5527
4550.000000	86.488	-121.8723
4620.000000	87.273	-115.5448
4680.000000	88.048	-111.6633
4750.000000	88.980	-109.0587
4820.000000	89.853	-108.2552
4870.000000	90.396	-108.6411
4940.000000	90.993	-110.1364
5000.000000	91.337	-111.8922
5080.000000	91.535	-114.1033
5150.000000	91.542	-115.3362
5220.000000	91.505	-115.5680
5300.000000	91.548	-114.9153
5380.000000	91.750	-114.4141
5450.000000	91.982	-114.7878
5520.000000	92.152	-116.0526
5600.000000	92.195	-118.0916
5700.000000	92.002	-120.5990
5800.000000	91.615	-122.1451
5900.000000	91.132	-122.5570
6000.000000	90.642	-121.8859
6080.000000	90.266	-120.6856
6150.000000	89.978	-119.2725
6220.000000	89.713	-117.6218
6300.000000	89.452	-115.3919
6400.000000	89.193	-112.2896
6500.000000	89.005	-108.8365
6600.000000	88.883	-105.3050
6700.000000	88.851	-101.6075
6800.000000	88.893	-97.7993
6900.000000	89.040	-93.9579
7000.000000	89.323	-90.2068
7100.000000	89.694	-86.5747
7200.000000	90.156	-83.1308
7300.000000	90.697	-80.0135
7400.000000	91.352	-77.2647
7500.000000	92.114	-74.9780
7620.000000	93.185	-73.3022
7750.000000	94.624	-73.2878
7880.000000	96.020	-76.1672
8000.000000	97.286	-82.5246
8120.000000	98.219	-92.8657
8250.000000	98.403	-106.6355
8380.000000	97.726	-119.0914
8500.000000	96.695	-127.5875
8620.000000	95.575	-133.6355
8750.000000	94.341	-138.6139
8850.000000	93.377	-142.0558
9000.000000	91.763	-146.8109
9120.000000	90.237	-149.6458
9250.000000	88.360	-150.6488
9380.000000	86.379	-148.8094
9500.000000	84.637	-144.4924
9620.000000	83.038	-137.8916
9750.000000	81.569	-128.9204
9880.000000	80.437	-118.6072
10000.000000	79.746	-108.0714
10150.000000	79.300	-94.1840
10300.000000	79.424	-80.3483
10440.000000	80.113	-67.5824
10600.000000	81.643	-56.1599
10750.000000	83.804	-51.5050
10900.000000	86.071	-56.2997
11060.000000	87.135	-70.3628
11200.000000	86.581	-81.2854
11380.000000	85.212	-87.1264
11500.000000	84.393	-87.8124
11720.000000	83.309	-86.3039
11800.000000	83.022	-85.5392
12060.000000	82.392	-83.4892
12200.000000	82.117	-82.5987
12410.000000	81.693	-82.2691
12500.000000	81.513	-82.2110
12650.000000	81.174	-82.0595
12800.000000	80.804	-81.2670
13150.000000	79.934	-79.2609
13200.000000	79.811	-78.7923
13400.000000	79.324	-76.8549
13600.000000	79.022	-74.3434
13800.000000	78.844	-71.9049
14000.000000	78.844	-69.8306
14300.000000	79.125	-67.4230
14500.000000	79.540	-66.9872
14750.000000	80.401	-69.9861
15000.000000	81.296	-77.2207
15250.000000	81.802	-89.0952
15500.000000	82.051	-101.2610
15750.000000	82.780	-117.3619
16000.000000	82.091	-145.5401
16250.000000	78.896	-163.8510
16500.000000	76.115	-168.2591
16750.000000	74.110	-167.4141
17000.000000	72.720	-164.1874
17250.000000	71.745	-160.7426
17500.000000	70.821	-156.9030
17750.000000	69.727	-153.0843
18000.000000	67.335	-140.9693
18250.000000	71.260	-94.3226
18500.000000	75.852	-116.6824
18750.000000	76.917	-132.5824
19000.000000	77.466	-148.5842
19250.000000	76.954	-168.0627
19500.000000	75.098	176.0878
19750.000000	72.592	167.3865
