* Measurement data measured by REW V5.20.4
* Source: Microphone (2- KM-HIFI-384KHZ), MICROPHONE (Master Volume), L, volume: 0.250
* Format: 256k Log Swept Sine, 1 sweep at -6.0 dBFS with no timing reference
* Dated: 15 Feb, 2022 1:17:11 PM
* REW Settings:
*  C-weighting compensation: Off
*  Target level: 75.0 dB
* Note: 
* Measurement: Starsea Balanced L
* Smoothing: None
* Frequency Step: 1/48 octave
* Start Frequency: 20.000 Hz
*
* Freq(Hz)	SPL(dB)	Phase(degrees)
20.000000	97.932	166.8571
20.299999	97.923	166.6804
20.600000	97.915	166.4712
20.900000	97.905	166.2355
21.200001	97.890	165.9815
21.400000	97.878	165.8215
21.799999	97.851	165.5466
22.000000	97.838	165.4302
22.400000	97.818	165.2044
22.700001	97.808	165.0226
23.000000	97.798	164.8104
23.299999	97.783	164.5751
23.600000	97.762	164.3536
24.000000	97.731	164.1245
24.299999	97.712	164.0024
24.700001	97.701	163.8550
25.000000	97.701	163.6956
25.400000	97.700	163.3640
25.799999	97.678	162.9586
26.200001	97.633	162.6161
26.500000	97.593	162.4729
26.900000	97.548	162.4396
27.200001	97.531	162.4481
27.600000	97.530	162.3587
28.000000	97.530	162.0706
28.500000	97.488	161.5588
29.000000	97.398	161.2670
29.500000	97.315	161.3940
30.000000	97.294	161.6999
30.400000	97.323	161.7586
30.700001	97.349	161.6143
31.100000	97.363	161.2251
31.500000	97.343	160.7687
32.000000	97.280	160.3612
32.500000	97.215	160.2071
33.000000	97.176	160.1434
33.500000	97.151	159.9816
34.000000	97.120	159.7147
34.500000	97.078	159.4573
35.000000	97.033	159.2918
35.500000	96.999	159.1747
36.000000	96.976	159.0240
36.500000	96.952	158.8132
37.000000	96.921	158.5961
37.500000	96.886	158.4155
38.200001	96.842	158.2163
38.700001	96.810	158.0696
39.500000	96.756	157.8357
40.000000	96.721	157.7120
40.599998	96.680	157.5744
41.200001	96.638	157.4399
41.799999	96.594	157.3212
42.500000	96.544	157.2034
43.099998	96.503	157.0916
43.700001	96.460	156.9677
44.400002	96.406	156.8447
45.000000	96.363	156.7574
45.500000	96.331	156.6662
46.200001	96.285	156.5032
46.799999	96.242	156.3704
47.500000	96.195	156.2563
48.200001	96.157	156.1184
48.700001	96.130	155.9731
49.400002	96.080	155.7667
50.000000	96.030	155.6676
50.799999	95.973	155.6382
51.500000	95.934	155.6213
52.200001	95.898	155.5849
53.000000	95.857	155.5242
53.799999	95.809	155.4526
54.500000	95.763	155.4108
55.200001	95.718	155.3907
56.000000	95.672	155.3415
57.000000	95.608	155.2230
58.000000	95.538	155.1452
59.000000	95.474	155.0831
60.000000	95.410	155.0245
60.799999	95.369	154.9592
61.500000	95.327	154.8734
62.200001	95.280	154.8668
63.000000	95.244	154.9131
64.000000	95.203	154.7755
65.000000	95.135	154.7253
66.000000	95.085	154.7314
67.000000	95.025	154.7078
68.000000	94.979	154.7537
69.000000	94.925	154.6758
70.000000	94.872	154.7619
71.000000	94.834	154.6918
72.000000	94.772	154.7334
73.000000	94.744	154.7171
74.000000	94.669	154.6300
75.000000	94.630	154.9088
76.199997	94.607	154.6831
77.500000	94.517	154.6920
78.800003	94.451	154.7155
80.000000	94.392	154.8642
81.199997	94.342	154.8935
82.500000	94.291	154.9645
83.800003	94.227	154.9121
85.000000	94.167	155.0692
86.199997	94.134	155.1307
87.500000	94.080	155.1336
88.500000	94.041	155.1898
90.000000	93.978	155.2707
91.199997	93.934	155.3421
92.500000	93.882	155.4293
93.800003	93.837	155.4924
95.000000	93.788	155.5613
96.199997	93.745	155.6503
97.500000	93.705	155.7363
98.800003	93.654	155.7426
100.000000	93.595	155.8525
101.500000	93.532	156.0250
103.000000	93.490	156.3717
104.400002	93.482	156.3286
106.000000	93.425	156.4215
107.500000	93.383	156.4534
109.000000	93.341	156.5267
110.599998	93.276	156.7722
112.000000	93.263	156.7813
113.800003	93.193	156.8963
115.000000	93.161	156.9727
117.199997	93.100	157.1384
118.000000	93.079	157.2050
120.599998	93.010	157.3997
122.000000	92.974	157.5107
124.099998	92.916	157.6915
125.000000	92.901	157.7715
126.500000	92.860	157.8257
128.000000	92.822	157.9706
131.500000	92.739	158.2565
132.000000	92.727	158.2996
134.000000	92.683	158.4674
136.000000	92.637	158.6067
138.000000	92.595	158.7696
140.000000	92.556	158.9388
143.000000	92.489	159.2009
145.000000	92.446	159.3323
147.500000	92.397	159.4795
150.000000	92.361	159.3910
152.500000	92.308	159.9100
155.000000	92.250	160.1547
157.500000	92.194	160.3727
160.000000	92.145	160.5739
162.500000	92.097	160.8068
165.000000	92.051	160.9826
167.500000	92.004	161.1757
170.000000	91.959	161.3831
172.500000	91.920	161.5980
175.000000	91.880	161.7998
177.500000	91.843	162.0181
180.000000	91.810	162.2181
182.500000	91.773	162.4025
185.000000	91.733	162.6338
187.500000	91.701	162.8326
190.000000	91.668	163.0128
192.500000	91.636	163.2007
195.000000	91.605	163.4203
197.500000	91.576	163.6351
200.000000	91.544	163.8320
203.000000	91.509	164.0784
206.000000	91.485	164.4269
209.000000	91.441	164.6255
212.000000	91.400	164.8588
214.000000	91.377	165.0532
218.000000	91.323	165.4318
220.000000	91.295	165.6536
224.000000	91.251	166.1003
227.000000	91.217	166.4665
230.000000	91.192	166.8634
233.000000	91.161	167.3162
236.000000	91.161	167.7995
240.000000	91.170	168.3788
243.000000	91.205	168.7404
247.000000	91.246	168.9610
250.000000	91.248	169.0274
254.000000	91.283	168.9013
258.000000	91.269	168.8997
262.000000	91.245	168.9182
265.000000	91.223	168.9695
269.000000	91.189	169.0927
272.000000	91.163	169.2021
276.000000	91.130	169.3830
280.000000	91.093	169.5561
285.000000	91.053	169.8158
290.000000	91.014	170.0694
295.000000	90.977	170.3375
300.000000	90.942	170.5884
304.000000	90.911	170.8131
307.000000	90.888	170.9936
311.000000	90.863	171.2243
315.000000	90.835	171.4601
320.000000	90.802	171.7301
325.000000	90.770	171.9984
330.000000	90.740	172.3042
335.000000	90.710	172.5801
340.000000	90.681	172.8498
345.000000	90.653	173.1053
350.000000	90.634	173.2200
355.000000	90.603	173.6797
360.000000	90.575	173.9655
365.000000	90.549	174.2392
370.000000	90.525	174.5267
375.000000	90.497	174.8394
382.000000	90.457	175.2357
387.000000	90.430	175.5275
395.000000	90.384	176.0120
400.000000	90.350	176.3668
406.000000	90.316	176.7790
412.000000	90.283	177.2088
418.000000	90.250	177.7102
425.000000	90.216	178.3965
431.000000	90.196	179.0446
437.000000	90.204	179.7441
444.000000	90.256	-179.5620
450.000000	90.282	-179.1987
455.000000	90.355	-179.1356
462.000000	90.377	-179.1175
468.000000	90.373	-179.1135
475.000000	90.354	-179.0256
482.000000	90.327	-178.8346
487.000000	90.305	-178.6770
494.000000	90.280	-178.4402
500.000000	90.257	-178.2060
508.000000	90.229	-177.8336
515.000000	90.207	-177.5126
522.000000	90.184	-177.1773
530.000000	90.160	-176.7861
538.000000	90.137	-176.3689
545.000000	90.120	-176.0043
552.000000	90.101	-175.6490
560.000000	90.083	-175.2405
570.000000	90.060	-174.6991
580.000000	90.039	-174.1419
590.000000	90.019	-173.5763
600.000000	90.003	-173.0279
608.000000	89.986	-172.5862
615.000000	89.970	-172.1857
622.000000	89.958	-171.7769
630.000000	89.944	-171.3221
640.000000	89.929	-170.7272
650.000000	89.898	-170.2603
660.000000	89.900	-169.5628
670.000000	89.893	-168.9593
680.000000	89.888	-168.3188
690.000000	89.876	-167.7524
700.000000	89.865	-167.1456
710.000000	89.862	-166.5334
720.000000	89.858	-165.9136
730.000000	89.860	-165.2791
740.000000	89.856	-164.6682
750.000000	89.837	-163.9482
762.000000	89.865	-163.2885
775.000000	89.877	-162.4816
788.000000	89.885	-161.6653
800.000000	89.900	-160.9259
812.000000	89.921	-160.1793
825.000000	89.941	-159.3768
838.000000	89.972	-158.5806
850.000000	90.016	-157.9448
862.000000	90.034	-157.1273
875.000000	90.072	-156.3637
885.000000	90.103	-155.7915
900.000000	90.159	-154.9377
912.000000	90.204	-154.2794
925.000000	90.256	-153.5390
938.000000	90.312	-152.8148
950.000000	90.368	-152.0552
962.000000	90.419	-151.5343
975.000000	90.496	-150.8820
988.000000	90.573	-150.2033
1000.000000	90.642	-149.6253
1015.000000	90.739	-148.8969
1030.000000	90.843	-148.2010
1044.000000	90.948	-147.5704
1060.000000	91.072	-146.9269
1075.000000	91.197	-146.3743
1090.000000	91.313	-145.9165
1106.000000	91.434	-145.4933
1120.000000	91.537	-145.2084
1138.000000	91.665	-144.9051
1150.000000	91.736	-144.6837
1172.000000	91.882	-144.5088
1180.000000	91.930	-144.4439
1206.000000	92.073	-144.2371
1220.000000	92.163	-144.1279
1241.000000	92.315	-143.9780
1250.000000	92.387	-143.9175
1265.000000	92.484	-143.8058
1280.000000	92.583	-143.7084
1315.000000	92.814	-143.4156
1320.000000	92.843	-143.3631
1340.000000	92.977	-143.1977
1360.000000	93.153	-143.0303
1380.000000	93.289	-142.8941
1400.000000	93.431	-142.7353
1430.000000	93.647	-142.5201
1450.000000	93.787	-142.4380
1475.000000	93.987	-142.3168
1500.000000	94.181	-142.2864
1525.000000	94.381	-142.3224
1550.000000	94.549	-142.3867
1575.000000	94.731	-142.6401
1600.000000	94.906	-142.9454
1625.000000	95.080	-143.3836
1650.000000	95.242	-143.9550
1675.000000	95.403	-144.6180
1700.000000	95.549	-145.4356
1725.000000	95.677	-146.3481
1750.000000	95.786	-147.3712
1775.000000	95.868	-148.4163
1800.000000	95.922	-149.5168
1825.000000	95.955	-150.6060
1850.000000	95.964	-151.6467
1875.000000	95.943	-152.6321
1900.000000	95.902	-153.5193
1925.000000	95.850	-154.3136
1950.000000	95.780	-155.0143
1975.000000	95.706	-155.5457
2000.000000	95.626	-155.9658
2030.000000	95.527	-156.3345
2060.000000	95.433	-156.5610
2090.000000	95.343	-156.6657
2120.000000	95.262	-156.6652
2140.000000	95.213	-156.6297
2180.000000	95.128	-156.4515
2200.000000	95.088	-156.3382
2240.000000	95.024	-156.0604
2270.000000	94.988	-155.8197
2300.000000	94.956	-155.5808
2330.000000	94.937	-155.3241
2360.000000	94.924	-155.0812
2400.000000	94.911	-154.7765
2430.000000	94.910	-154.5576
2470.000000	94.912	-154.2893
2500.000000	94.921	-154.1218
2540.000000	94.934	-153.9052
2580.000000	94.954	-153.7134
2620.000000	94.972	-153.5998
2650.000000	94.986	-153.5224
2690.000000	95.013	-153.4674
2720.000000	95.028	-153.4307
2760.000000	95.053	-153.4684
2800.000000	95.077	-153.5435
2850.000000	95.104	-153.6856
2900.000000	95.123	-153.8876
2950.000000	95.140	-154.1521
3000.000000	95.152	-154.4847
3040.000000	95.160	-154.7886
3070.000000	95.159	-155.0488
3110.000000	95.157	-155.4438
3150.000000	95.146	-155.8880
3200.000000	95.125	-156.5092
3250.000000	95.095	-157.2126
3300.000000	95.048	-157.9768
3350.000000	94.982	-158.8205
3400.000000	94.898	-159.7408
3450.000000	94.798	-160.7419
3500.000000	94.668	-161.8273
3550.000000	94.503	-162.9321
3600.000000	94.307	-164.0974
3650.000000	94.075	-165.2408
3700.000000	93.792	-166.3547
3750.000000	93.465	-167.3931
3820.000000	92.919	-168.5776
3870.000000	92.470	-169.1537
3950.000000	91.655	-169.4317
4000.000000	91.086	-169.0506
4060.000000	90.356	-167.8761
4120.000000	89.609	-165.7870
4180.000000	88.848	-162.6524
4250.000000	88.052	-157.5751
4310.000000	87.469	-151.8175
4370.000000	87.068	-145.1751
4440.000000	86.927	-136.7438
4500.000000	87.093	-129.6295
4550.000000	87.411	-124.3257
4620.000000	88.050	-118.1396
4680.000000	88.709	-114.2942
4750.000000	89.504	-111.5189
4820.000000	90.265	-110.2992
4870.000000	90.742	-110.2850
4940.000000	91.274	-111.0921
5000.000000	91.576	-112.3615
5080.000000	91.774	-114.0892
5150.000000	91.769	-115.1047
5220.000000	91.672	-115.1528
5300.000000	91.589	-114.0383
5380.000000	91.660	-112.2032
5450.000000	91.869	-110.8261
5520.000000	92.150	-110.2758
5600.000000	92.442	-110.9238
5700.000000	92.607	-112.8803
5800.000000	92.500	-114.8806
5900.000000	92.211	-116.0449
6000.000000	91.835	-116.1651
6080.000000	91.527	-115.5660
6150.000000	91.271	-114.6046
6220.000000	91.031	-113.2193
6300.000000	90.803	-111.3216
6400.000000	90.572	-108.5296
6500.000000	90.423	-105.4290
6600.000000	90.345	-102.0519
6700.000000	90.358	-98.4965
6800.000000	90.455	-94.9740
6900.000000	90.664	-91.3711
7000.000000	91.008	-87.7809
7100.000000	91.461	-84.3807
7200.000000	92.031	-81.2751
7300.000000	92.684	-78.6693
7400.000000	93.460	-76.4995
7500.000000	94.362	-75.1831
7620.000000	95.595	-75.1455
7750.000000	97.177	-77.9401
7880.000000	98.516	-84.9407
8000.000000	99.366	-95.5034
8120.000000	99.457	-108.0498
8250.000000	98.705	-120.0807
8380.000000	97.502	-128.2404
8500.000000	96.342	-132.7619
8620.000000	95.259	-135.5620
8750.000000	94.149	-137.6100
8850.000000	93.349	-138.8292
9000.000000	92.109	-140.7149
9120.000000	91.010	-141.8516
9250.000000	89.677	-142.1061
9380.000000	88.271	-140.6741
9500.000000	86.999	-137.7695
9620.000000	85.802	-133.5651
9750.000000	84.715	-127.4960
9880.000000	83.811	-120.6019
10000.000000	83.160	-113.7665
10150.000000	82.587	-105.0291
10300.000000	82.343	-96.0262
10440.000000	82.376	-87.5599
10600.000000	82.896	-78.5381
10750.000000	83.862	-72.5383
10900.000000	85.112	-71.3311
11060.000000	86.062	-76.7499
11200.000000	85.986	-82.8227
11380.000000	85.203	-86.4183
11500.000000	84.712	-86.4206
11720.000000	84.102	-85.3588
11800.000000	83.907	-84.8868
12060.000000	83.362	-84.3499
12200.000000	83.060	-84.2484
12410.000000	82.573	-83.7569
12500.000000	82.315	-83.2676
12650.000000	81.910	-82.4021
12800.000000	81.518	-80.9703
13150.000000	80.755	-76.1595
13200.000000	80.664	-75.3376
13400.000000	80.405	-71.9221
13600.000000	80.336	-68.7627
13800.000000	80.493	-65.7771
14000.000000	80.863	-63.9423
14300.000000	81.736	-63.8800
14500.000000	82.476	-67.3255
14750.000000	83.164	-76.6105
15000.000000	82.968	-89.5324
15250.000000	81.929	-99.3461
15500.000000	81.386	-104.1876
15750.000000	81.831	-113.6160
16000.000000	81.248	-135.9423
16250.000000	78.336	-150.3550
16500.000000	75.794	-152.1835
16750.000000	74.238	-149.6193
17000.000000	73.281	-145.2878
17250.000000	72.926	-140.8918
17500.000000	73.027	-136.4880
17750.000000	73.265	-134.9752
18000.000000	73.637	-135.3861
18250.000000	73.505	-139.1976
18500.000000	72.213	-123.9561
18750.000000	77.878	-130.1218
19000.000000	77.628	-158.8872
19250.000000	75.788	-174.2648
19500.000000	73.884	176.4489
19750.000000	71.885	171.2765
