* Measurement data measured by REW V5.20.4
* Source: Microphone (2- KM-HIFI-384KHZ), MICROPHONE (Master Volume), L, volume: 0.250
* Format: 256k Log Swept Sine, 1 sweep at -6.0 dBFS with no timing reference
* Dated: 15 Feb, 2022 1:15:53 PM
* REW Settings:
*  C-weighting compensation: Off
*  Target level: 75.0 dB
* Note: 
* Measurement: Starsea Pure L
* Smoothing: None
* Frequency Step: 1/48 octave
* Start Frequency: 20.000 Hz
*
* Freq(Hz)	SPL(dB)	Phase(degrees)
20.000000	97.755	163.1790
20.299999	97.735	162.9398
20.600000	97.715	162.6988
20.900000	97.695	162.4605
21.200001	97.674	162.2141
21.400000	97.660	162.0503
21.799999	97.631	161.7355
22.000000	97.616	161.5853
22.400000	97.587	161.2892
22.700001	97.566	161.0805
23.000000	97.546	160.8759
23.299999	97.526	160.6632
23.600000	97.507	160.4483
24.000000	97.480	160.1628
24.299999	97.460	159.9505
24.700001	97.432	159.6773
25.000000	97.412	159.4785
25.400000	97.384	159.2082
25.799999	97.355	158.9399
26.200001	97.322	158.6782
26.500000	97.296	158.4952
26.900000	97.259	158.2829
27.200001	97.232	158.1356
27.600000	97.199	157.9337
28.000000	97.169	157.7092
28.500000	97.128	157.3890
29.000000	97.080	157.0820
29.500000	97.030	156.8247
30.000000	96.988	156.6051
30.400000	96.962	156.4078
30.700001	96.944	156.2395
31.100000	96.917	155.9962
31.500000	96.885	155.7565
32.000000	96.842	155.5037
32.500000	96.802	155.2909
33.000000	96.768	155.0788
33.500000	96.729	154.8416
34.000000	96.687	154.6103
34.500000	96.647	154.4081
35.000000	96.609	154.2341
35.500000	96.575	154.0528
36.000000	96.539	153.8523
36.500000	96.500	153.6418
37.000000	96.457	153.4470
37.500000	96.414	153.2676
38.200001	96.354	153.0286
38.700001	96.309	152.8528
39.500000	96.237	152.5847
40.000000	96.194	152.4322
40.599998	96.146	152.2422
41.200001	96.099	152.0331
41.799999	96.049	151.8287
42.500000	95.990	151.6316
43.099998	95.944	151.4745
43.700001	95.897	151.3066
44.400002	95.838	151.1360
45.000000	95.789	151.0209
45.500000	95.751	150.9108
46.200001	95.693	150.7370
46.799999	95.640	150.6230
47.500000	95.585	150.4999
48.200001	95.528	150.2902
48.700001	95.474	150.1498
49.400002	95.397	150.1264
50.000000	95.359	150.1742
50.799999	95.330	149.9980
51.500000	95.277	149.7068
52.200001	95.211	149.5565
53.000000	95.153	149.4610
53.799999	95.096	149.2851
54.500000	95.037	149.1722
55.200001	94.984	149.1017
56.000000	94.928	148.9844
57.000000	94.850	148.8564
58.000000	94.777	148.7575
59.000000	94.701	148.6505
60.000000	94.624	148.5627
60.799999	94.567	148.4885
61.500000	94.519	148.4154
62.200001	94.469	148.3489
63.000000	94.412	148.2930
64.000000	94.345	148.2161
65.000000	94.278	148.1509
66.000000	94.214	148.0970
67.000000	94.149	148.0180
68.000000	94.079	147.9854
69.000000	94.015	147.9465
70.000000	93.947	147.9137
71.000000	93.884	147.9030
72.000000	93.821	147.8672
73.000000	93.758	147.8529
74.000000	93.697	147.8373
75.000000	93.638	147.8213
76.199997	93.568	147.7947
77.500000	93.488	147.8021
78.800003	93.415	147.8257
80.000000	93.348	147.8335
81.199997	93.280	147.8374
82.500000	93.207	147.8828
83.800003	93.138	147.8966
85.000000	93.070	147.9543
86.199997	93.008	147.9969
87.500000	92.942	148.0694
88.500000	92.897	148.0509
90.000000	92.807	148.0941
91.199997	92.752	148.1641
92.500000	92.687	148.2117
93.800003	92.625	148.2647
95.000000	92.563	148.3181
96.199997	92.508	148.4045
97.500000	92.446	148.4412
98.800003	92.386	148.5467
100.000000	92.330	148.5909
101.500000	92.267	148.7251
103.000000	92.200	148.7883
104.400002	92.142	148.8929
106.000000	92.071	149.0177
107.500000	92.010	149.1216
109.000000	91.946	149.2330
110.599998	91.880	149.3576
112.000000	91.823	149.4715
113.800003	91.752	149.6031
115.000000	91.704	149.7027
117.199997	91.618	149.8790
118.000000	91.588	149.9530
120.599998	91.492	150.1886
122.000000	91.443	150.3196
124.099998	91.370	150.5025
125.000000	91.339	150.5790
126.500000	91.287	150.7297
128.000000	91.239	150.8814
131.500000	91.128	151.2441
132.000000	91.112	151.2877
134.000000	91.051	151.5027
136.000000	90.994	151.6945
138.000000	90.938	151.8878
140.000000	90.883	152.0877
143.000000	90.797	152.3452
145.000000	90.747	152.5152
147.500000	90.690	152.7693
150.000000	90.677	153.1847
152.500000	90.551	153.3392
155.000000	90.471	153.5401
157.500000	90.404	153.7433
160.000000	90.341	154.0052
162.500000	90.276	154.2737
165.000000	90.211	154.5257
167.500000	90.150	154.7570
170.000000	90.091	155.0193
172.500000	90.037	155.2762
175.000000	89.984	155.5165
177.500000	89.934	155.7686
180.000000	89.884	156.0280
182.500000	89.836	156.2856
185.000000	89.789	156.5436
187.500000	89.743	156.7938
190.000000	89.697	157.0372
192.500000	89.657	157.2931
195.000000	89.617	157.5436
197.500000	89.576	157.8013
200.000000	89.536	158.0449
203.000000	89.495	158.3463
206.000000	89.452	158.6479
209.000000	89.409	158.9418
212.000000	89.368	159.2455
214.000000	89.342	159.4442
218.000000	89.283	159.8341
220.000000	89.254	160.0248
224.000000	89.197	160.4159
227.000000	89.156	160.7198
230.000000	89.117	161.0056
233.000000	89.077	161.2921
236.000000	89.040	161.5723
240.000000	88.986	161.9576
243.000000	88.953	162.2251
247.000000	88.910	162.6639
250.000000	88.877	163.1583
254.000000	88.829	163.2625
258.000000	88.794	163.6404
262.000000	88.747	164.0315
265.000000	88.716	164.3214
269.000000	88.675	164.7174
272.000000	88.640	165.0142
276.000000	88.594	165.4355
280.000000	88.549	165.8720
285.000000	88.496	166.4526
290.000000	88.447	167.1283
295.000000	88.418	167.8613
300.000000	88.414	168.6000
304.000000	88.432	169.0534
307.000000	88.450	169.3259
311.000000	88.465	169.5381
315.000000	88.466	169.6858
320.000000	88.452	169.8552
325.000000	88.425	170.0522
330.000000	88.389	170.3108
335.000000	88.351	170.5935
340.000000	88.313	170.9004
345.000000	88.283	171.2298
350.000000	88.271	171.7320
355.000000	88.219	171.9641
360.000000	88.191	172.2814
365.000000	88.161	172.6562
370.000000	88.135	173.0098
375.000000	88.112	173.3680
382.000000	88.074	173.9017
387.000000	88.050	174.2506
395.000000	88.012	174.8240
400.000000	87.988	175.1921
406.000000	87.964	175.6337
412.000000	87.939	176.0668
418.000000	87.913	176.4944
425.000000	87.886	176.9990
431.000000	87.863	177.4169
437.000000	87.840	177.8600
444.000000	87.815	178.3264
450.000000	87.752	178.9246
455.000000	87.767	179.1032
462.000000	87.745	179.6275
468.000000	87.725	-179.9429
475.000000	87.699	-179.4544
482.000000	87.679	-178.9730
487.000000	87.665	-178.5867
494.000000	87.646	-178.1170
500.000000	87.632	-177.6651
508.000000	87.613	-177.0945
515.000000	87.597	-176.5999
522.000000	87.576	-176.0825
530.000000	87.559	-175.4767
538.000000	87.544	-174.8840
545.000000	87.527	-174.3435
552.000000	87.517	-173.7496
560.000000	87.504	-173.0686
570.000000	87.509	-172.1992
580.000000	87.528	-171.3540
590.000000	87.558	-170.6510
600.000000	87.583	-170.0563
608.000000	87.589	-169.6402
615.000000	87.585	-169.2333
622.000000	87.584	-168.8178
630.000000	87.582	-168.3439
640.000000	87.569	-167.6994
650.000000	87.536	-167.1451
660.000000	87.563	-166.3551
670.000000	87.558	-165.6762
680.000000	87.561	-165.0037
690.000000	87.560	-164.2734
700.000000	87.558	-163.5819
710.000000	87.564	-162.8538
720.000000	87.571	-162.1372
730.000000	87.580	-161.4095
740.000000	87.590	-160.7104
750.000000	87.636	-160.0309
762.000000	87.627	-159.1328
775.000000	87.645	-158.2027
788.000000	87.675	-157.2730
800.000000	87.705	-156.4376
812.000000	87.737	-155.5785
825.000000	87.778	-154.6711
838.000000	87.825	-153.7463
850.000000	87.893	-152.8996
862.000000	87.919	-152.1139
875.000000	87.975	-151.2434
885.000000	88.021	-150.5829
900.000000	88.095	-149.5980
912.000000	88.161	-148.8430
925.000000	88.232	-148.0151
938.000000	88.305	-147.1963
950.000000	88.400	-146.4476
962.000000	88.461	-145.7660
975.000000	88.555	-144.9638
988.000000	88.652	-144.2207
1000.000000	88.753	-143.5527
1015.000000	88.881	-142.7071
1030.000000	89.021	-141.9406
1044.000000	89.157	-141.2681
1060.000000	89.323	-140.5547
1075.000000	89.485	-140.0246
1090.000000	89.635	-139.5577
1106.000000	89.794	-139.1646
1120.000000	89.923	-138.9011
1138.000000	90.087	-138.6616
1150.000000	90.196	-138.3968
1172.000000	90.363	-138.4115
1180.000000	90.424	-138.3346
1206.000000	90.608	-138.2319
1220.000000	90.718	-138.1555
1241.000000	90.901	-138.1170
1250.000000	90.966	-138.1220
1265.000000	91.098	-138.0469
1280.000000	91.219	-137.9839
1315.000000	91.496	-137.8491
1320.000000	91.532	-137.8296
1340.000000	91.688	-137.7574
1360.000000	91.884	-137.7135
1380.000000	92.051	-137.6537
1400.000000	92.214	-137.6026
1430.000000	92.464	-137.5655
1450.000000	92.638	-137.5599
1475.000000	92.848	-137.6968
1500.000000	93.064	-137.8124
1525.000000	93.287	-138.0330
1550.000000	93.474	-138.3851
1575.000000	93.670	-138.7291
1600.000000	93.859	-139.2552
1625.000000	94.043	-139.9147
1650.000000	94.211	-140.6623
1675.000000	94.381	-141.5612
1700.000000	94.527	-142.5901
1725.000000	94.653	-143.7100
1750.000000	94.753	-144.8692
1775.000000	94.831	-146.1510
1800.000000	94.880	-147.4209
1825.000000	94.898	-148.6606
1850.000000	94.894	-149.8684
1875.000000	94.858	-150.9671
1900.000000	94.810	-151.9697
1925.000000	94.739	-152.8322
1950.000000	94.651	-153.5410
1975.000000	94.560	-154.1852
2000.000000	94.465	-154.6524
2030.000000	94.351	-155.0489
2060.000000	94.242	-155.2869
2090.000000	94.137	-155.4134
2120.000000	94.041	-155.4134
2140.000000	93.983	-155.3603
2180.000000	93.884	-155.1972
2200.000000	93.844	-155.0710
2240.000000	93.769	-154.7747
2270.000000	93.729	-154.5314
2300.000000	93.696	-154.2860
2330.000000	93.668	-154.0392
2360.000000	93.648	-153.8087
2400.000000	93.631	-153.4902
2430.000000	93.627	-153.2822
2470.000000	93.624	-153.0409
2500.000000	93.627	-152.8625
2540.000000	93.631	-152.7023
2580.000000	93.641	-152.5453
2620.000000	93.654	-152.4472
2650.000000	93.658	-152.4062
2690.000000	93.674	-152.3582
2720.000000	93.684	-152.3514
2760.000000	93.693	-152.3807
2800.000000	93.702	-152.4373
2850.000000	93.712	-152.5327
2900.000000	93.714	-152.7596
2950.000000	93.713	-153.0229
3000.000000	93.702	-153.3057
3040.000000	93.689	-153.5686
3070.000000	93.670	-153.8182
3110.000000	93.650	-154.1454
3150.000000	93.619	-154.5184
3200.000000	93.565	-155.0004
3250.000000	93.503	-155.5334
3300.000000	93.428	-156.1401
3350.000000	93.330	-156.7855
3400.000000	93.223	-157.5156
3450.000000	93.088	-158.2431
3500.000000	92.934	-158.9615
3550.000000	92.747	-159.7515
3600.000000	92.530	-160.4265
3650.000000	92.286	-161.1101
3700.000000	91.996	-161.7280
3750.000000	91.671	-162.2544
3820.000000	91.157	-162.5735
3870.000000	90.737	-162.5618
3950.000000	90.008	-161.8176
4000.000000	89.516	-160.8495
4060.000000	88.906	-159.0123
4120.000000	88.297	-156.4244
4180.000000	87.704	-152.8667
4250.000000	87.112	-147.7213
4310.000000	86.741	-142.3442
4370.000000	86.531	-136.3754
4440.000000	86.538	-129.1549
4500.000000	86.759	-123.2173
4550.000000	87.068	-118.7804
4620.000000	87.678	-113.6458
4680.000000	88.283	-110.4460
4750.000000	89.023	-108.2257
4820.000000	89.711	-107.3191
4870.000000	90.134	-107.5143
4940.000000	90.591	-108.4839
5000.000000	90.826	-109.6425
5080.000000	90.957	-111.0687
5150.000000	90.928	-111.6309
5220.000000	90.859	-111.2541
5300.000000	90.839	-109.8292
5380.000000	90.982	-107.9392
5450.000000	91.251	-106.7399
5520.000000	91.570	-106.3643
5600.000000	91.898	-107.3099
5700.000000	92.093	-109.6690
5800.000000	92.000	-112.1445
5900.000000	91.697	-113.7889
6000.000000	91.286	-114.2596
6080.000000	90.953	-113.8832
6150.000000	90.662	-113.0938
6220.000000	90.384	-111.8372
6300.000000	90.118	-110.0297
6400.000000	89.840	-107.3454
6500.000000	89.638	-104.2381
6600.000000	89.509	-100.8906
6700.000000	89.463	-97.2821
6800.000000	89.496	-93.5743
6900.000000	89.648	-89.7464
7000.000000	89.936	-85.9862
7100.000000	90.312	-82.3248
7200.000000	90.803	-78.8605
7300.000000	91.379	-75.6109
7400.000000	92.058	-72.8486
7500.000000	92.857	-70.5710
7620.000000	93.971	-68.8780
7750.000000	95.463	-68.9999
7880.000000	96.891	-72.0640
8000.000000	98.154	-78.4952
8120.000000	99.062	-88.7474
8250.000000	99.248	-102.1017
8380.000000	98.585	-114.0117
8500.000000	97.584	-121.7923
8620.000000	96.513	-126.9034
8750.000000	95.382	-130.4332
8850.000000	94.583	-132.4380
9000.000000	93.417	-135.2477
9120.000000	92.395	-137.2810
9250.000000	91.167	-138.8099
9380.000000	89.822	-138.9081
9500.000000	88.551	-137.4852
9620.000000	87.347	-134.5352
9750.000000	86.165	-129.9072
9880.000000	85.189	-124.1559
10000.000000	84.417	-118.1175
10150.000000	83.713	-110.2067
10300.000000	83.320	-101.6456
10440.000000	83.255	-93.2362
10600.000000	83.612	-84.5694
10750.000000	84.498	-78.1560
10900.000000	85.778	-76.6341
11060.000000	86.841	-82.1565
11200.000000	86.840	-89.3821
11380.000000	85.978	-94.4297
11500.000000	85.398	-95.2094
11720.000000	84.581	-94.7330
11800.000000	84.349	-94.3193
12060.000000	83.670	-94.1380
12200.000000	83.226	-94.0479
12410.000000	82.664	-93.9642
12500.000000	82.385	-93.6178
12650.000000	81.906	-92.7977
12800.000000	81.436	-91.5363
13150.000000	80.495	-87.0756
13200.000000	80.368	-86.4611
13400.000000	80.004	-83.3304
13600.000000	79.795	-79.8253
13800.000000	79.826	-76.8203
14000.000000	80.047	-74.5320
14300.000000	80.732	-73.5410
14500.000000	81.395	-75.8785
14750.000000	82.069	-83.4394
15000.000000	82.060	-95.3720
15250.000000	81.278	-105.2793
15500.000000	80.704	-111.1595
15750.000000	81.180	-120.8697
16000.000000	80.684	-143.8940
16250.000000	77.792	-160.0163
16500.000000	75.173	-163.1006
16750.000000	73.346	-160.7906
17000.000000	72.357	-157.0956
17250.000000	71.844	-152.5549
17500.000000	71.753	-148.7993
17750.000000	71.764	-144.9953
18000.000000	71.925	-143.9325
18250.000000	71.809	-142.6875
18500.000000	70.753	-121.4671
18750.000000	77.391	-123.3793
19000.000000	78.568	-152.5956
19250.000000	77.604	-174.1632
19500.000000	75.777	171.1542
19750.000000	73.595	161.0944
