* Measurement data measured by REW V5.20.4
* Source: Microphone (2- KM-HIFI-384KHZ), MICROPHONE (Master Volume), L, volume: 0.250
* Format: 256k Log Swept Sine, 1 sweep at -6.0 dBFS with no timing reference
* Dated: 15 Feb, 2022 1:17:59 PM
* REW Settings:
*  C-weighting compensation: Off
*  Target level: 75.0 dB
* Note: 
* Measurement: Starsea Vocal L
* Smoothing: None
* Frequency Step: 1/48 octave
* Start Frequency: 20.000 Hz
*
* Freq(Hz)	SPL(dB)	Phase(degrees)
20.000000	97.952	166.8744
20.299999	97.946	166.7104
20.600000	97.943	166.5014
20.900000	97.938	166.2514
21.200001	97.926	165.9691
21.400000	97.914	165.7862
21.799999	97.884	165.4713
22.000000	97.867	165.3473
22.400000	97.838	165.1496
22.700001	97.823	165.0281
23.000000	97.813	164.8943
23.299999	97.803	164.7276
23.600000	97.791	164.5449
24.000000	97.768	164.3155
24.299999	97.750	164.1810
24.700001	97.730	164.0626
25.000000	97.724	163.9886
25.400000	97.727	163.8362
25.799999	97.733	163.5790
26.200001	97.727	163.2290
26.500000	97.712	162.9539
26.900000	97.677	162.6422
27.200001	97.646	162.4658
27.600000	97.609	162.2893
28.000000	97.580	162.1336
28.500000	97.549	161.9080
29.000000	97.516	161.6784
29.500000	97.484	161.4758
30.000000	97.461	161.2691
30.400000	97.447	161.0425
30.700001	97.433	160.8373
31.100000	97.402	160.5569
31.500000	97.360	160.3299
32.000000	97.303	160.1926
32.500000	97.263	160.1706
33.000000	97.244	160.1286
33.500000	97.231	159.9613
34.000000	97.209	159.6863
34.500000	97.174	159.3917
35.000000	97.127	159.1697
35.500000	97.080	159.0427
36.000000	97.045	158.9664
36.500000	97.020	158.8640
37.000000	96.997	158.7026
37.500000	96.968	158.5049
38.200001	96.919	158.2652
38.700001	96.883	158.1295
39.500000	96.830	157.9068
40.000000	96.797	157.7581
40.599998	96.754	157.5921
41.200001	96.712	157.4500
41.799999	96.670	157.3253
42.500000	96.624	157.1962
43.099998	96.587	157.0777
43.700001	96.548	156.9374
44.400002	96.496	156.7924
45.000000	96.452	156.7138
45.500000	96.420	156.6455
46.200001	96.377	156.5040
46.799999	96.333	156.3819
47.500000	96.285	156.2919
48.200001	96.246	156.1582
48.700001	96.213	156.0077
49.400002	96.149	155.8639
50.000000	96.100	155.8851
50.799999	96.067	155.8936
51.500000	96.038	155.7287
52.200001	95.990	155.5826
53.000000	95.939	155.5260
53.799999	95.895	155.4234
54.500000	95.846	155.3402
55.200001	95.802	155.3061
56.000000	95.756	155.2217
57.000000	95.688	155.1314
58.000000	95.631	155.0976
59.000000	95.572	155.0057
60.000000	95.508	154.9776
60.799999	95.467	154.9287
61.500000	95.427	154.8780
62.200001	95.387	154.8527
63.000000	95.342	154.8089
64.000000	95.280	154.7685
65.000000	95.226	154.7714
66.000000	95.173	154.7444
67.000000	95.126	154.7424
68.000000	95.079	154.6590
69.000000	95.021	154.6551
70.000000	94.977	154.6793
71.000000	94.926	154.6804
72.000000	94.883	154.7240
73.000000	94.833	154.6828
74.000000	94.773	154.7200
75.000000	94.719	154.7753
76.199997	94.670	154.8810
77.500000	94.614	154.7188
78.800003	94.541	154.7966
80.000000	94.492	154.7540
81.199997	94.436	154.8648
82.500000	94.391	154.8652
83.800003	94.332	154.9601
85.000000	94.284	154.9827
86.199997	94.227	155.0914
87.500000	94.183	155.1269
88.500000	94.138	155.1577
90.000000	94.082	155.2232
91.199997	94.033	155.2853
92.500000	93.987	155.3567
93.800003	93.937	155.4389
95.000000	93.893	155.5175
96.199997	93.848	155.5898
97.500000	93.801	155.6860
98.800003	93.754	155.7505
100.000000	93.712	155.8752
101.500000	93.663	155.9259
103.000000	93.621	156.0844
104.400002	93.572	156.1081
106.000000	93.520	156.2617
107.500000	93.475	156.4137
109.000000	93.429	156.4927
110.599998	93.386	156.6491
112.000000	93.343	156.7304
113.800003	93.294	156.8521
115.000000	93.258	156.9628
117.199997	93.199	157.1078
118.000000	93.177	157.1741
120.599998	93.107	157.3533
122.000000	93.071	157.4458
124.099998	93.017	157.6088
125.000000	92.995	157.6781
126.500000	92.958	157.8022
128.000000	92.920	157.9125
131.500000	92.838	158.1905
132.000000	92.827	158.2304
134.000000	92.783	158.3946
136.000000	92.737	158.5664
138.000000	92.693	158.7272
140.000000	92.650	158.8850
143.000000	92.591	159.1342
145.000000	92.548	159.3172
147.500000	92.490	159.5400
150.000000	92.400	159.7462
152.500000	92.390	159.8919
155.000000	92.345	160.1325
157.500000	92.296	160.3602
160.000000	92.243	160.5549
162.500000	92.194	160.7471
165.000000	92.146	160.9428
167.500000	92.100	161.1643
170.000000	92.053	161.3648
172.500000	92.013	161.5747
175.000000	91.974	161.7749
177.500000	91.935	161.9848
180.000000	91.897	162.2042
182.500000	91.860	162.4217
185.000000	91.821	162.6475
187.500000	91.785	162.8394
190.000000	91.753	163.0417
192.500000	91.717	163.2416
195.000000	91.686	163.4955
197.500000	91.652	163.6772
200.000000	91.618	163.9006
203.000000	91.578	164.2041
206.000000	91.540	164.5246
209.000000	91.503	164.8426
212.000000	91.465	165.2230
214.000000	91.438	165.4665
218.000000	91.393	165.9772
220.000000	91.373	166.3359
224.000000	91.345	166.9890
227.000000	91.349	167.5085
230.000000	91.385	167.9834
233.000000	91.413	168.3177
236.000000	91.444	168.5124
240.000000	91.484	168.4797
243.000000	91.487	168.4310
247.000000	91.485	168.3898
250.000000	91.490	168.3682
254.000000	91.434	168.4380
258.000000	91.404	168.5138
262.000000	91.369	168.6635
265.000000	91.344	168.7606
269.000000	91.311	168.9415
272.000000	91.285	169.0806
276.000000	91.250	169.2593
280.000000	91.217	169.4731
285.000000	91.177	169.7274
290.000000	91.139	170.0126
295.000000	91.103	170.2760
300.000000	91.066	170.5714
304.000000	91.040	170.7887
307.000000	91.017	170.9695
311.000000	90.989	171.1961
315.000000	90.963	171.4215
320.000000	90.930	171.6956
325.000000	90.897	171.9882
330.000000	90.866	172.2862
335.000000	90.833	172.5562
340.000000	90.805	172.8459
345.000000	90.780	173.1368
350.000000	90.760	173.5598
355.000000	90.721	173.7105
360.000000	90.695	173.9978
365.000000	90.668	174.2895
370.000000	90.642	174.5825
375.000000	90.614	174.8689
382.000000	90.573	175.3268
387.000000	90.542	175.6445
395.000000	90.492	176.2142
400.000000	90.461	176.5918
406.000000	90.427	177.1417
412.000000	90.403	177.7427
418.000000	90.393	178.4182
425.000000	90.422	179.2009
431.000000	90.476	179.6521
437.000000	90.527	179.8467
444.000000	90.558	179.8928
450.000000	90.553	179.7082
455.000000	90.545	179.9738
462.000000	90.515	-179.8834
468.000000	90.488	-179.6923
475.000000	90.457	-179.4499
482.000000	90.426	-179.1611
487.000000	90.408	-178.9391
494.000000	90.383	-178.6273
500.000000	90.361	-178.3323
508.000000	90.336	-177.9323
515.000000	90.317	-177.5774
522.000000	90.294	-177.2205
530.000000	90.274	-176.8035
538.000000	90.253	-176.3795
545.000000	90.235	-176.0002
552.000000	90.219	-175.6390
560.000000	90.204	-175.1724
570.000000	90.180	-174.6546
580.000000	90.160	-174.0947
590.000000	90.143	-173.5436
600.000000	90.126	-172.9869
608.000000	90.113	-172.5334
615.000000	90.097	-172.1218
622.000000	90.085	-171.7133
630.000000	90.070	-171.2397
640.000000	90.058	-170.6619
650.000000	90.024	-170.0907
660.000000	90.034	-169.4852
670.000000	90.024	-168.8702
680.000000	90.018	-168.2408
690.000000	90.005	-167.6578
700.000000	89.997	-167.0471
710.000000	89.992	-166.4283
720.000000	89.989	-165.8076
730.000000	89.988	-165.1851
740.000000	89.990	-164.5652
750.000000	90.006	-163.8338
762.000000	90.002	-163.1985
775.000000	90.008	-162.3845
788.000000	90.023	-161.5573
800.000000	90.033	-160.8097
812.000000	90.053	-160.0576
825.000000	90.078	-159.2792
838.000000	90.104	-158.4706
850.000000	90.119	-157.7384
862.000000	90.168	-157.0224
875.000000	90.206	-156.2425
885.000000	90.240	-155.6750
900.000000	90.292	-154.8057
912.000000	90.336	-154.1491
925.000000	90.392	-153.4153
938.000000	90.448	-152.7088
950.000000	90.507	-152.1694
962.000000	90.555	-151.4212
975.000000	90.628	-150.7500
988.000000	90.707	-150.0966
1000.000000	90.777	-149.5021
1015.000000	90.873	-148.7418
1030.000000	90.979	-148.0421
1044.000000	91.083	-147.4353
1060.000000	91.208	-146.7728
1075.000000	91.334	-146.2074
1090.000000	91.447	-145.7376
1106.000000	91.567	-145.3204
1120.000000	91.673	-145.0340
1138.000000	91.797	-144.7235
1150.000000	91.862	-144.5760
1172.000000	92.020	-144.3196
1180.000000	92.064	-144.2377
1206.000000	92.207	-144.0282
1220.000000	92.305	-143.9036
1241.000000	92.456	-143.7657
1250.000000	92.522	-143.6549
1265.000000	92.621	-143.5839
1280.000000	92.722	-143.4524
1315.000000	92.954	-143.1614
1320.000000	92.987	-143.1284
1340.000000	93.117	-142.9452
1360.000000	93.293	-142.7773
1380.000000	93.436	-142.6285
1400.000000	93.580	-142.4852
1430.000000	93.798	-142.2855
1450.000000	93.947	-142.1204
1475.000000	94.140	-142.0852
1500.000000	94.335	-142.0328
1525.000000	94.539	-142.0634
1550.000000	94.718	-142.1638
1575.000000	94.888	-142.3984
1600.000000	95.067	-142.7365
1625.000000	95.241	-143.1929
1650.000000	95.412	-143.7352
1675.000000	95.564	-144.4612
1700.000000	95.707	-145.2945
1725.000000	95.832	-146.2199
1750.000000	95.935	-147.2173
1775.000000	96.015	-148.3111
1800.000000	96.069	-149.4155
1825.000000	96.095	-150.5075
1850.000000	96.095	-151.5306
1875.000000	96.076	-152.5391
1900.000000	96.035	-153.3961
1925.000000	95.977	-154.1716
1950.000000	95.908	-154.8491
1975.000000	95.828	-155.3530
2000.000000	95.744	-155.7689
2030.000000	95.644	-156.0976
2060.000000	95.550	-156.3002
2090.000000	95.461	-156.3728
2120.000000	95.377	-156.3607
2140.000000	95.326	-156.2960
2180.000000	95.237	-156.0990
2200.000000	95.200	-155.9605
2240.000000	95.135	-155.6490
2270.000000	95.097	-155.3858
2300.000000	95.066	-155.1052
2330.000000	95.045	-154.8392
2360.000000	95.030	-154.5626
2400.000000	95.017	-154.2125
2430.000000	95.018	-153.9766
2470.000000	95.021	-153.6624
2500.000000	95.030	-153.4579
2540.000000	95.045	-153.2078
2580.000000	95.071	-152.9988
2620.000000	95.095	-152.8506
2650.000000	95.121	-152.7680
2690.000000	95.139	-152.7305
2720.000000	95.160	-152.7116
2760.000000	95.186	-152.7222
2800.000000	95.208	-152.7638
2850.000000	95.232	-152.8606
2900.000000	95.253	-153.0596
2950.000000	95.278	-153.2820
3000.000000	95.287	-153.5667
3040.000000	95.295	-153.8861
3070.000000	95.297	-154.1048
3110.000000	95.298	-154.4893
3150.000000	95.287	-154.9152
3200.000000	95.272	-155.4908
3250.000000	95.240	-156.1310
3300.000000	95.197	-156.9023
3350.000000	95.137	-157.7279
3400.000000	95.059	-158.6082
3450.000000	94.954	-159.5840
3500.000000	94.829	-160.6303
3550.000000	94.669	-161.7281
3600.000000	94.478	-162.8457
3650.000000	94.247	-163.9225
3700.000000	93.973	-165.0154
3750.000000	93.653	-166.0298
3820.000000	93.116	-167.2136
3870.000000	92.676	-167.7441
3950.000000	91.866	-168.0062
4000.000000	91.294	-167.5949
4060.000000	90.571	-166.4036
4120.000000	89.824	-164.2757
4180.000000	89.080	-161.0682
4250.000000	88.261	-155.9310
4310.000000	87.695	-150.1443
4370.000000	87.317	-143.3965
4440.000000	87.184	-134.9348
4500.000000	87.352	-127.7699
4550.000000	87.686	-122.2656
4620.000000	88.346	-116.1180
4680.000000	89.022	-112.1955
4750.000000	89.846	-109.3395
4820.000000	90.636	-108.1083
4870.000000	91.131	-108.0593
4940.000000	91.692	-108.9092
5000.000000	92.030	-110.1770
5080.000000	92.262	-111.9086
5150.000000	92.298	-112.9498
5220.000000	92.252	-113.0922
5300.000000	92.239	-112.2191
5380.000000	92.355	-110.8563
5450.000000	92.591	-110.0253
5520.000000	92.860	-109.9784
5600.000000	93.108	-111.0744
5700.000000	93.198	-113.2904
5800.000000	93.032	-115.2438
5900.000000	92.713	-116.3134
6000.000000	92.324	-116.3070
6080.000000	92.019	-115.6107
6150.000000	91.767	-114.4984
6220.000000	91.544	-113.0707
6300.000000	91.334	-111.1844
6400.000000	91.135	-108.3831
6500.000000	91.001	-105.3112
6600.000000	90.961	-101.9799
6700.000000	91.008	-98.5146
6800.000000	91.150	-95.0019
6900.000000	91.409	-91.6034
7000.000000	91.812	-88.2768
7100.000000	92.328	-85.2607
7200.000000	92.946	-82.6671
7300.000000	93.665	-80.7023
7400.000000	94.485	-79.3846
7500.000000	95.409	-79.1736
7620.000000	96.629	-80.7352
7750.000000	98.080	-85.6419
7880.000000	99.100	-94.5847
8000.000000	99.472	-105.7124
8120.000000	99.129	-117.0366
8250.000000	98.142	-126.6811
8380.000000	96.914	-132.8141
8500.000000	95.811	-136.0897
8620.000000	94.808	-138.2165
8750.000000	93.761	-139.8184
8850.000000	92.998	-141.0004
9000.000000	91.762	-142.9344
9120.000000	90.625	-143.9727
9250.000000	89.234	-143.8481
9380.000000	87.801	-142.0251
9500.000000	86.496	-138.5460
9620.000000	85.341	-133.4969
9750.000000	84.262	-127.1885
9880.000000	83.438	-119.9582
10000.000000	82.839	-112.9721
10150.000000	82.324	-103.9226
10300.000000	82.090	-94.7108
10440.000000	82.257	-86.4313
10600.000000	82.821	-77.8042
10750.000000	83.786	-72.5421
10900.000000	84.961	-72.1304
11060.000000	85.656	-77.2565
11200.000000	85.434	-82.0425
11380.000000	84.704	-84.0738
11500.000000	84.312	-83.6153
11720.000000	83.836	-81.7201
11800.000000	83.716	-81.2029
12060.000000	83.328	-80.3103
12200.000000	83.084	-79.8381
12410.000000	82.641	-79.5023
12500.000000	82.442	-79.0807
12650.000000	82.094	-78.0193
12800.000000	81.775	-76.6305
13150.000000	81.170	-71.7803
13200.000000	81.110	-71.0316
13400.000000	80.961	-67.8055
13600.000000	81.019	-64.8660
13800.000000	81.310	-62.4446
14000.000000	81.799	-61.3889
14300.000000	82.878	-63.5099
14500.000000	83.657	-69.1799
14750.000000	83.993	-81.8121
15000.000000	83.144	-95.0755
15250.000000	81.877	-101.9964
15500.000000	81.221	-105.0762
15750.000000	81.772	-113.4152
16000.000000	81.262	-134.3855
16250.000000	78.508	-147.8804
16500.000000	76.210	-148.8006
16750.000000	74.835	-146.2667
17000.000000	74.213	-141.9836
17250.000000	74.097	-138.5967
17500.000000	74.462	-135.4979
17750.000000	74.976	-137.2826
18000.000000	75.425	-142.6703
18250.000000	74.926	-152.1809
18500.000000	72.419	-142.9889
18750.000000	76.717	-147.2803
19000.000000	75.567	-169.7470
19250.000000	73.710	-179.7657
19500.000000	71.986	174.8069
19750.000000	70.458	172.2167
