* Measurement data measured by REW V5.20.4
* Source: Microphone (2- KM-HIFI-384KHZ), MICROPHONE (Master Volume), R, volume: 0.250
* Format: 256k Log Swept Sine, 1 sweep at -6.0 dBFS with no timing reference
* Dated: 15 Feb, 2022 1:10:46 PM
* REW Settings:
*  C-weighting compensation: Off
*  Target level: 75.0 dB
* Note: 
* Measurement: Starsea Balanced R
* Smoothing: None
* Frequency Step: 1/48 octave
* Start Frequency: 20.000 Hz
*
* Freq(Hz)	SPL(dB)	Phase(degrees)
20.000000	97.272	168.7347
20.299999	97.275	168.5731
20.600000	97.280	168.3524
20.900000	97.280	168.0861
21.200001	97.270	167.8010
21.400000	97.259	167.6294
21.799999	97.233	167.3586
22.000000	97.221	167.2585
22.400000	97.205	167.0876
22.700001	97.199	166.9600
23.000000	97.196	166.8071
23.299999	97.191	166.6254
23.600000	97.184	166.4354
24.000000	97.171	166.1903
24.299999	97.161	166.0107
24.700001	97.147	165.7665
25.000000	97.134	165.5732
25.400000	97.111	165.3067
25.799999	97.078	165.0823
26.200001	97.041	164.9323
26.500000	97.017	164.8667
26.900000	96.990	164.8209
27.200001	96.974	164.7834
27.600000	96.960	164.6994
28.000000	96.948	164.5738
28.500000	96.931	164.3624
29.000000	96.909	164.1203
29.500000	96.881	163.8659
30.000000	96.849	163.6352
30.400000	96.827	163.4620
30.700001	96.812	163.3334
31.100000	96.792	163.1469
31.500000	96.769	162.9422
32.000000	96.735	162.6958
32.500000	96.698	162.4843
33.000000	96.663	162.2992
33.500000	96.624	162.1122
34.000000	96.583	161.9553
34.500000	96.549	161.8611
35.000000	96.529	161.8022
35.500000	96.521	161.6763
36.000000	96.510	161.4468
36.500000	96.485	161.1807
37.000000	96.451	160.9775
37.500000	96.419	160.8370
38.200001	96.384	160.6329
38.700001	96.352	160.4547
39.500000	96.293	160.2387
40.000000	96.260	160.1509
40.599998	96.228	160.0258
41.200001	96.194	159.8735
41.799999	96.157	159.7405
42.500000	96.118	159.6085
43.099998	96.090	159.4567
43.700001	96.054	159.2715
44.400002	96.002	159.1044
45.000000	95.960	159.0327
45.500000	95.931	158.9747
46.200001	95.893	158.8488
46.799999	95.855	158.7308
47.500000	95.810	158.6161
48.200001	95.764	158.4836
48.700001	95.724	158.3993
49.400002	95.668	158.3942
50.000000	95.640	158.4503
50.799999	95.623	158.3489
51.500000	95.589	158.1020
52.200001	95.534	157.9631
53.000000	95.486	157.9579
53.799999	95.455	157.8682
54.500000	95.414	157.7363
55.200001	95.366	157.6891
56.000000	95.325	157.6689
57.000000	95.272	157.5688
58.000000	95.217	157.5053
59.000000	95.165	157.3839
60.000000	95.098	157.2911
60.799999	95.057	157.2534
61.500000	95.022	157.1930
62.200001	94.986	157.1707
63.000000	94.955	157.1694
64.000000	94.914	157.0494
65.000000	94.849	157.0789
66.000000	94.821	157.2509
67.000000	94.795	157.0666
68.000000	94.709	157.0581
69.000000	94.681	157.2677
70.000000	94.643	157.0247
71.000000	94.565	157.1166
72.000000	94.553	157.1482
73.000000	94.492	156.9527
74.000000	94.445	157.1602
75.000000	94.427	157.0548
76.199997	94.360	157.0821
77.500000	94.309	156.9995
78.800003	94.244	157.1566
80.000000	94.204	156.9747
81.199997	94.130	157.0915
82.500000	94.096	157.0515
83.800003	94.032	157.1210
85.000000	93.999	157.1848
86.199997	93.945	157.1635
87.500000	93.888	157.3881
88.500000	93.874	157.4065
90.000000	93.802	157.4035
91.199997	93.767	157.4509
92.500000	93.714	157.5151
93.800003	93.679	157.5781
95.000000	93.636	157.6236
96.199997	93.597	157.6962
97.500000	93.564	157.7521
98.800003	93.508	157.6985
100.000000	93.457	157.9476
101.500000	93.435	157.9973
103.000000	93.389	158.0983
104.400002	93.349	158.1364
106.000000	93.304	158.2513
107.500000	93.257	158.3157
109.000000	93.211	158.4329
110.599998	93.171	158.5742
112.000000	93.138	158.6122
113.800003	93.089	158.7045
115.000000	93.050	158.7883
117.199997	92.999	158.9350
118.000000	92.977	159.0078
120.599998	92.917	159.1953
122.000000	92.881	159.2753
124.099998	92.831	159.4203
125.000000	92.810	159.4998
126.500000	92.781	159.5862
128.000000	92.746	159.6913
131.500000	92.681	159.9409
132.000000	92.669	159.9729
134.000000	92.628	160.1022
136.000000	92.585	160.2674
138.000000	92.550	160.4179
140.000000	92.511	160.5630
143.000000	92.450	160.7920
145.000000	92.423	160.9103
147.500000	92.390	161.0623
150.000000	92.392	161.3640
152.500000	92.298	161.5015
155.000000	92.245	161.6539
157.500000	92.200	161.8224
160.000000	92.159	161.9761
162.500000	92.112	162.1634
165.000000	92.069	162.3442
167.500000	92.028	162.5133
170.000000	91.989	162.6909
172.500000	91.954	162.8653
175.000000	91.921	163.0196
177.500000	91.890	163.1909
180.000000	91.858	163.3605
182.500000	91.826	163.5428
185.000000	91.800	163.7100
187.500000	91.769	163.8731
190.000000	91.738	164.0443
192.500000	91.712	164.2030
195.000000	91.688	164.3693
197.500000	91.666	164.5302
200.000000	91.643	164.7042
203.000000	91.614	164.8995
206.000000	91.588	165.0851
209.000000	91.562	165.2590
212.000000	91.537	165.4629
214.000000	91.519	165.5747
218.000000	91.482	165.8455
220.000000	91.465	165.9646
224.000000	91.427	166.2155
227.000000	91.402	166.3989
230.000000	91.375	166.5753
233.000000	91.348	166.7704
236.000000	91.323	166.9564
240.000000	91.289	167.1812
243.000000	91.268	167.3531
247.000000	91.245	167.6360
250.000000	91.234	167.9344
254.000000	91.190	167.9950
258.000000	91.168	168.2106
262.000000	91.141	168.4518
265.000000	91.121	168.6331
269.000000	91.094	168.8613
272.000000	91.072	169.0233
276.000000	91.045	169.2541
280.000000	91.016	169.4803
285.000000	90.978	169.7652
290.000000	90.944	170.0466
295.000000	90.911	170.3477
300.000000	90.878	170.6555
304.000000	90.851	170.8763
307.000000	90.829	171.0610
311.000000	90.801	171.3051
315.000000	90.774	171.5548
320.000000	90.745	171.8821
325.000000	90.715	172.2380
330.000000	90.691	172.5663
335.000000	90.670	172.8759
340.000000	90.652	173.1957
345.000000	90.637	173.4501
350.000000	90.643	173.7285
355.000000	90.604	174.0196
360.000000	90.584	174.2822
365.000000	90.566	174.5797
370.000000	90.545	174.8592
375.000000	90.527	175.1762
382.000000	90.500	175.6427
387.000000	90.491	176.0040
395.000000	90.487	176.5466
400.000000	90.493	176.8410
406.000000	90.501	177.1166
412.000000	90.503	177.3364
418.000000	90.498	177.5499
425.000000	90.489	177.7949
431.000000	90.480	177.9775
437.000000	90.466	178.1517
444.000000	90.449	178.3705
450.000000	90.448	178.6915
455.000000	90.407	178.6963
462.000000	90.381	178.9534
468.000000	90.353	179.1528
475.000000	90.323	179.4288
482.000000	90.293	179.7278
487.000000	90.277	179.9493
494.000000	90.255	-179.7364
500.000000	90.235	-179.4582
508.000000	90.206	-179.0983
515.000000	90.185	-178.7642
522.000000	90.164	-178.4162
530.000000	90.142	-178.0531
538.000000	90.119	-177.6665
545.000000	90.096	-177.3227
552.000000	90.078	-176.9966
560.000000	90.060	-176.5647
570.000000	90.033	-176.0816
580.000000	90.009	-175.5669
590.000000	89.990	-175.0655
600.000000	89.969	-174.5330
608.000000	89.953	-174.0977
615.000000	89.934	-173.7176
622.000000	89.917	-173.3571
630.000000	89.900	-172.9292
640.000000	89.882	-172.3863
650.000000	89.874	-171.7744
660.000000	89.845	-171.2597
670.000000	89.826	-170.6835
680.000000	89.807	-170.1187
690.000000	89.796	-169.5440
700.000000	89.784	-168.9726
710.000000	89.769	-168.3921
720.000000	89.760	-167.7767
730.000000	89.750	-167.1926
740.000000	89.745	-166.5758
750.000000	89.731	-165.8738
762.000000	89.738	-165.2343
775.000000	89.733	-164.3927
788.000000	89.735	-163.6016
800.000000	89.741	-162.8222
812.000000	89.747	-162.0940
825.000000	89.759	-161.2266
838.000000	89.778	-160.3909
850.000000	89.806	-159.5678
862.000000	89.826	-158.8537
875.000000	89.861	-158.0111
885.000000	89.894	-157.3441
900.000000	89.949	-156.3517
912.000000	90.001	-155.6133
925.000000	90.067	-154.7836
938.000000	90.143	-154.0031
950.000000	90.224	-153.2919
962.000000	90.294	-152.7004
975.000000	90.397	-152.0862
988.000000	90.499	-151.5234
1000.000000	90.592	-151.0917
1015.000000	90.709	-150.5857
1030.000000	90.823	-150.1641
1044.000000	90.925	-149.8064
1060.000000	91.040	-149.4541
1075.000000	91.135	-149.1696
1090.000000	91.225	-148.8891
1106.000000	91.306	-148.6358
1120.000000	91.374	-148.4127
1138.000000	91.459	-148.1574
1150.000000	91.523	-148.0338
1172.000000	91.606	-147.7214
1180.000000	91.636	-147.6286
1206.000000	91.739	-147.2925
1220.000000	91.815	-147.1015
1241.000000	91.940	-146.8541
1250.000000	91.997	-146.7306
1265.000000	92.083	-146.5660
1280.000000	92.170	-146.3788
1315.000000	92.374	-145.9293
1320.000000	92.402	-145.8389
1340.000000	92.518	-145.6029
1360.000000	92.684	-145.3261
1380.000000	92.811	-145.0350
1400.000000	92.939	-144.7786
1430.000000	93.139	-144.3686
1450.000000	93.282	-144.1111
1475.000000	93.465	-143.8536
1500.000000	93.656	-143.5988
1525.000000	93.858	-143.3933
1550.000000	94.033	-143.3200
1575.000000	94.221	-143.3040
1600.000000	94.415	-143.3995
1625.000000	94.608	-143.6422
1650.000000	94.804	-144.0174
1675.000000	94.994	-144.5469
1700.000000	95.177	-145.2213
1725.000000	95.347	-146.0601
1750.000000	95.500	-147.0349
1775.000000	95.631	-148.1313
1800.000000	95.739	-149.3208
1825.000000	95.815	-150.5482
1850.000000	95.863	-151.8166
1875.000000	95.876	-153.0565
1900.000000	95.866	-154.2353
1925.000000	95.835	-155.3600
1950.000000	95.774	-156.3531
1975.000000	95.699	-157.2263
2000.000000	95.613	-157.9644
2030.000000	95.497	-158.6805
2060.000000	95.378	-159.2063
2090.000000	95.263	-159.5662
2120.000000	95.147	-159.7982
2140.000000	95.075	-159.8688
2180.000000	94.938	-159.9017
2200.000000	94.874	-159.8553
2240.000000	94.763	-159.6815
2270.000000	94.694	-159.5096
2300.000000	94.633	-159.2993
2330.000000	94.574	-159.0467
2360.000000	94.528	-158.7970
2400.000000	94.477	-158.4195
2430.000000	94.445	-158.1472
2470.000000	94.416	-157.8099
2500.000000	94.399	-157.5438
2540.000000	94.385	-157.2231
2580.000000	94.373	-156.9275
2620.000000	94.374	-156.6402
2650.000000	94.378	-156.4680
2690.000000	94.384	-156.2693
2720.000000	94.392	-156.1445
2760.000000	94.406	-155.9939
2800.000000	94.418	-155.9052
2850.000000	94.442	-155.8525
2900.000000	94.465	-155.8561
2950.000000	94.492	-155.9428
3000.000000	94.513	-156.1081
3040.000000	94.530	-156.3331
3070.000000	94.537	-156.5415
3110.000000	94.553	-156.8643
3150.000000	94.560	-157.2520
3200.000000	94.558	-157.8334
3250.000000	94.549	-158.5125
3300.000000	94.524	-159.3316
3350.000000	94.482	-160.2656
3400.000000	94.415	-161.3365
3450.000000	94.332	-162.4879
3500.000000	94.210	-163.7797
3550.000000	94.049	-165.1386
3600.000000	93.843	-166.5463
3650.000000	93.592	-167.9897
3700.000000	93.283	-169.3805
3750.000000	92.918	-170.6567
3820.000000	92.298	-172.1964
3870.000000	91.786	-172.8735
3950.000000	90.846	-173.2166
4000.000000	90.197	-172.7028
4060.000000	89.373	-171.2983
4120.000000	88.522	-168.7456
4180.000000	87.689	-164.9833
4250.000000	86.795	-158.9312
4310.000000	86.204	-152.1889
4370.000000	85.848	-144.5819
4440.000000	85.801	-135.1493
4500.000000	86.079	-127.4291
4550.000000	86.490	-121.7934
4620.000000	87.276	-115.4066
4680.000000	88.061	-111.6272
4750.000000	88.988	-109.1202
4820.000000	89.858	-108.3574
4870.000000	90.404	-108.7469
4940.000000	90.998	-110.2329
5000.000000	91.331	-111.9740
5080.000000	91.528	-114.2267
5150.000000	91.535	-115.4699
5220.000000	91.501	-115.6885
5300.000000	91.541	-115.1121
5380.000000	91.734	-114.5252
5450.000000	91.963	-114.9209
5520.000000	92.137	-116.1600
5600.000000	92.173	-118.2090
5700.000000	91.980	-120.6722
5800.000000	91.588	-122.2179
5900.000000	91.108	-122.6088
6000.000000	90.616	-121.9237
6080.000000	90.250	-120.7435
6150.000000	89.947	-119.3471
6220.000000	89.686	-117.6036
6300.000000	89.426	-115.3997
6400.000000	89.163	-112.2648
6500.000000	88.966	-108.8118
6600.000000	88.851	-105.2940
6700.000000	88.821	-101.5538
6800.000000	88.869	-97.7544
6900.000000	89.005	-93.9274
7000.000000	89.291	-90.1653
7100.000000	89.663	-86.5319
7200.000000	90.110	-83.1138
7300.000000	90.669	-79.9889
7400.000000	91.309	-77.1418
7500.000000	92.072	-74.8680
7620.000000	93.138	-73.1233
7750.000000	94.579	-73.0771
7880.000000	95.971	-75.8325
8000.000000	97.242	-82.0283
8120.000000	98.190	-92.3459
8250.000000	98.399	-106.0555
8380.000000	97.747	-118.5557
8500.000000	96.733	-127.1438
8620.000000	95.609	-133.2411
8750.000000	94.376	-138.2739
8850.000000	93.417	-141.6855
9000.000000	91.821	-146.5191
9120.000000	90.306	-149.3942
9250.000000	88.435	-150.5353
9380.000000	86.452	-148.8355
9500.000000	84.707	-144.4659
9620.000000	83.108	-138.0205
9750.000000	81.621	-129.1587
9880.000000	80.494	-118.8211
10000.000000	79.753	-108.1617
10150.000000	79.322	-94.4189
10300.000000	79.404	-80.7862
10440.000000	80.022	-67.9282
10600.000000	81.649	-56.3248
10750.000000	83.797	-51.5769
10900.000000	86.070	-56.3783
11060.000000	87.134	-70.4092
11200.000000	86.582	-81.2559
11380.000000	85.219	-87.1371
11500.000000	84.426	-87.9951
11720.000000	83.326	-86.4710
11800.000000	83.039	-85.4511
12060.000000	82.390	-83.6737
12200.000000	82.093	-83.0890
12410.000000	81.716	-82.4602
12500.000000	81.540	-82.2983
12650.000000	81.209	-82.0195
12800.000000	80.841	-81.6805
13150.000000	79.956	-79.5362
13200.000000	79.812	-79.0625
13400.000000	79.401	-76.9688
13600.000000	79.038	-74.6781
13800.000000	78.839	-72.1136
14000.000000	78.828	-69.7519
14300.000000	79.124	-67.5726
14500.000000	79.585	-67.3727
14750.000000	80.406	-70.2684
15000.000000	81.290	-78.0955
15250.000000	81.851	-90.0566
15500.000000	82.005	-101.6270
15750.000000	82.738	-118.0170
16000.000000	82.034	-145.9210
16250.000000	78.852	-163.9300
16500.000000	76.023	-168.5105
16750.000000	74.015	-167.6300
17000.000000	72.664	-164.5182
17250.000000	71.761	-161.2933
17500.000000	70.778	-157.5904
17750.000000	69.791	-153.0020
18000.000000	67.255	-140.9261
18250.000000	71.397	-95.7722
18500.000000	75.829	-116.8969
18750.000000	76.843	-132.1995
19000.000000	77.525	-148.5523
19250.000000	77.007	-167.6876
19500.000000	75.139	176.1562
19750.000000	72.607	167.3577
