* Measurement data measured by REW V5.20.4
* Source: Microphone (2- KM-HIFI-384KHZ), MICROPHONE (Master Volume), L, volume: 0.250
* Format: 256k Log Swept Sine, 1 sweep at -6.0 dBFS with no timing reference
* Dated: 31 Jan, 2022 11:03:39 PM
* REW Settings:
*  C-weighting compensation: Off
*  Target level: 75.0 dB
* Note: 
* Measurement: tanya l
* Smoothing: None
* Frequency Step: 1/48 octave
* Start Frequency: 20.000 Hz
*
* Freq(Hz)	SPL(dB)	Phase(degrees)
20.000000	93.802	-136.9679
20.299999	93.878	-137.3918
20.600000	93.955	-137.8055
20.900000	94.033	-138.2137
21.200001	94.114	-138.6413
21.400000	94.168	-138.9398
21.799999	94.273	-139.5617
22.000000	94.322	-139.8822
22.400000	94.413	-140.5347
22.700001	94.474	-141.0007
23.000000	94.532	-141.4325
23.299999	94.589	-141.8366
23.600000	94.648	-142.2159
24.000000	94.731	-142.7079
24.299999	94.795	-143.0920
24.700001	94.880	-143.6331
25.000000	94.940	-144.0536
25.400000	95.014	-144.6189
25.799999	95.082	-145.1555
26.200001	95.148	-145.6667
26.500000	95.198	-146.0463
26.900000	95.261	-146.5554
27.200001	95.304	-146.9471
27.600000	95.358	-147.4707
28.000000	95.407	-147.9659
28.500000	95.468	-148.5427
29.000000	95.536	-149.1111
29.500000	95.604	-149.7303
30.000000	95.664	-150.3761
30.400000	95.707	-150.8734
30.700001	95.739	-151.2156
31.100000	95.784	-151.6452
31.500000	95.834	-152.0791
32.000000	95.897	-152.6599
32.500000	95.953	-153.2708
33.000000	96.002	-153.8519
33.500000	96.046	-154.3922
34.000000	96.091	-154.9158
34.500000	96.140	-155.4454
35.000000	96.184	-155.9496
35.500000	96.228	-156.4120
36.000000	96.278	-156.8619
36.500000	96.331	-157.3553
37.000000	96.376	-157.8913
37.500000	96.410	-158.4205
38.200001	96.449	-159.0597
38.700001	96.479	-159.4748
39.500000	96.532	-160.1953
40.000000	96.560	-160.6826
40.599998	96.586	-161.2593
41.200001	96.608	-161.7973
41.799999	96.629	-162.3023
42.500000	96.659	-162.8652
43.099998	96.690	-163.3542
43.700001	96.723	-163.8854
44.400002	96.751	-164.5358
45.000000	96.768	-165.0526
45.500000	96.782	-165.4426
46.200001	96.809	-165.9758
46.799999	96.832	-166.4551
47.500000	96.855	-167.0210
48.200001	96.874	-167.6022
48.700001	96.882	-168.0236
49.400002	96.881	-168.5364
50.000000	96.888	-168.8761
50.799999	96.918	-169.3725
51.500000	96.940	-169.9370
52.200001	96.946	-170.4680
53.000000	96.958	-170.9872
53.799999	96.974	-171.5549
54.500000	96.979	-172.0521
55.200001	96.983	-172.5083
56.000000	96.988	-173.0374
57.000000	96.989	-173.6585
58.000000	96.997	-174.2778
59.000000	96.992	-174.9192
60.000000	96.987	-175.4837
60.799999	96.989	-175.9755
61.500000	96.985	-176.4051
62.200001	96.980	-176.7901
63.000000	96.980	-177.2141
64.000000	96.983	-177.7844
65.000000	96.979	-178.3806
66.000000	96.967	-178.9128
67.000000	96.962	-179.4225
68.000000	96.952	-179.9460
69.000000	96.942	179.5665
70.000000	96.933	179.0490
71.000000	96.917	178.5492
72.000000	96.902	178.0872
73.000000	96.891	177.6199
74.000000	96.875	177.1424
75.000000	96.857	176.6984
76.199997	96.842	176.1901
77.500000	96.822	175.5915
78.800003	96.799	175.0377
80.000000	96.776	174.5235
81.199997	96.753	174.0428
82.500000	96.729	173.5286
83.800003	96.704	173.0234
85.000000	96.678	172.5670
86.199997	96.653	172.1332
87.500000	96.624	171.6492
88.500000	96.602	171.2993
90.000000	96.567	170.7647
91.199997	96.538	170.3597
92.500000	96.507	169.9204
93.800003	96.478	169.5054
95.000000	96.447	169.1028
96.199997	96.415	168.7390
97.500000	96.383	168.3367
98.800003	96.351	167.9597
100.000000	96.321	167.5779
101.500000	96.281	167.1671
103.000000	96.245	166.7311
104.400002	96.210	166.3476
106.000000	96.163	165.9241
107.500000	96.122	165.5413
109.000000	96.078	165.1687
110.599998	96.032	164.7542
112.000000	95.989	164.4094
113.800003	95.940	164.0093
115.000000	95.903	163.7087
117.199997	95.843	163.2374
118.000000	95.818	163.0611
120.599998	95.742	162.5118
122.000000	95.703	162.2305
124.099998	95.643	161.8096
125.000000	95.615	161.6391
126.500000	95.574	161.3490
128.000000	95.529	161.0734
131.500000	95.429	160.4544
132.000000	95.415	160.3702
134.000000	95.358	160.0325
136.000000	95.299	159.7054
138.000000	95.239	159.3862
140.000000	95.182	159.0934
143.000000	95.096	158.6512
145.000000	95.037	158.3654
147.500000	94.965	158.0049
150.000000	94.904	157.5642
152.500000	94.822	157.3890
155.000000	94.742	157.1172
157.500000	94.663	156.8393
160.000000	94.585	156.5590
162.500000	94.508	156.3000
165.000000	94.433	156.0602
167.500000	94.356	155.8257
170.000000	94.281	155.6113
172.500000	94.210	155.3915
175.000000	94.142	155.1708
177.500000	94.070	154.9820
180.000000	94.004	154.8119
182.500000	93.937	154.6305
185.000000	93.870	154.4595
187.500000	93.803	154.3225
190.000000	93.736	154.1754
192.500000	93.671	154.0249
195.000000	93.610	153.8968
197.500000	93.549	153.7748
200.000000	93.485	153.6609
203.000000	93.413	153.5292
206.000000	93.340	153.4164
209.000000	93.267	153.3010
212.000000	93.193	153.2064
214.000000	93.149	153.1357
218.000000	93.046	153.0270
220.000000	92.998	152.9879
224.000000	92.900	152.8917
227.000000	92.826	152.8315
230.000000	92.755	152.7836
233.000000	92.685	152.7415
236.000000	92.612	152.7041
240.000000	92.518	152.6722
243.000000	92.454	152.6711
247.000000	92.365	152.6162
250.000000	92.285	152.5599
254.000000	92.214	152.6228
258.000000	92.130	152.6300
262.000000	92.044	152.6606
265.000000	91.983	152.6780
269.000000	91.899	152.7176
272.000000	91.835	152.7518
276.000000	91.752	152.8152
280.000000	91.667	152.8672
285.000000	91.567	152.9580
290.000000	91.465	153.0658
295.000000	91.366	153.1769
300.000000	91.270	153.3105
304.000000	91.191	153.4134
307.000000	91.131	153.5028
311.000000	91.056	153.6174
315.000000	90.980	153.7435
320.000000	90.886	153.9095
325.000000	90.797	154.0833
330.000000	90.705	154.2692
335.000000	90.616	154.4604
340.000000	90.529	154.6750
345.000000	90.446	154.8743
350.000000	90.372	155.1061
355.000000	90.283	155.3119
360.000000	90.203	155.5218
365.000000	90.125	155.7607
370.000000	90.049	156.0016
375.000000	89.974	156.2454
382.000000	89.868	156.6191
387.000000	89.792	156.8673
395.000000	89.676	157.2923
400.000000	89.606	157.5572
406.000000	89.522	157.9085
412.000000	89.439	158.2484
418.000000	89.358	158.5937
425.000000	89.266	159.0272
431.000000	89.187	159.3799
437.000000	89.108	159.7412
444.000000	89.018	160.1889
450.000000	88.961	160.5124
455.000000	88.884	160.8887
462.000000	88.798	161.3384
468.000000	88.728	161.7357
475.000000	88.646	162.1973
482.000000	88.568	162.6876
487.000000	88.517	163.0137
494.000000	88.442	163.5159
500.000000	88.384	163.9326
508.000000	88.303	164.5030
515.000000	88.239	165.0093
522.000000	88.169	165.5020
530.000000	88.098	166.0975
538.000000	88.029	166.6882
545.000000	87.966	167.2089
552.000000	87.908	167.7316
560.000000	87.843	168.3653
570.000000	87.765	169.1235
580.000000	87.689	169.9099
590.000000	87.617	170.7107
600.000000	87.548	171.4745
608.000000	87.495	172.1344
615.000000	87.445	172.6899
622.000000	87.400	173.2474
630.000000	87.352	173.8758
640.000000	87.293	174.7296
650.000000	87.234	175.6443
660.000000	87.187	176.3571
670.000000	87.137	177.2117
680.000000	87.090	178.0040
690.000000	87.049	178.8219
700.000000	87.005	179.6389
710.000000	86.969	-179.5762
720.000000	86.931	-178.8214
730.000000	86.891	-178.1155
740.000000	86.845	-177.3871
750.000000	86.785	-176.5302
762.000000	86.706	-175.5655
775.000000	86.636	-174.2522
788.000000	86.587	-172.8115
800.000000	86.576	-171.5504
812.000000	86.574	-170.3257
825.000000	86.587	-169.0662
838.000000	86.598	-167.8626
850.000000	86.624	-166.8431
862.000000	86.645	-165.7060
875.000000	86.677	-164.6202
885.000000	86.705	-163.7491
900.000000	86.753	-162.6010
912.000000	86.792	-161.6359
925.000000	86.842	-160.6744
938.000000	86.894	-159.7164
950.000000	86.943	-158.9012
962.000000	87.015	-158.0760
975.000000	87.081	-157.2712
988.000000	87.151	-156.4933
1000.000000	87.222	-155.7870
1015.000000	87.308	-154.9482
1030.000000	87.400	-154.1878
1044.000000	87.481	-153.4961
1060.000000	87.575	-152.7649
1075.000000	87.665	-152.1420
1090.000000	87.739	-151.5324
1106.000000	87.815	-150.9597
1120.000000	87.872	-150.4465
1138.000000	87.953	-149.8717
1150.000000	88.007	-149.4836
1172.000000	88.088	-148.8291
1180.000000	88.118	-148.5978
1206.000000	88.212	-147.9149
1220.000000	88.280	-147.5733
1241.000000	88.393	-146.9888
1250.000000	88.443	-146.8044
1265.000000	88.517	-146.3992
1280.000000	88.592	-146.0214
1315.000000	88.760	-145.1817
1320.000000	88.780	-145.0399
1340.000000	88.867	-144.5574
1360.000000	89.004	-143.9983
1380.000000	89.098	-143.5172
1400.000000	89.187	-142.9936
1430.000000	89.326	-142.2043
1450.000000	89.415	-141.7178
1475.000000	89.529	-141.0422
1500.000000	89.643	-140.3305
1525.000000	89.755	-139.6213
1550.000000	89.840	-139.0052
1575.000000	89.924	-138.2551
1600.000000	90.016	-137.5584
1625.000000	90.109	-136.8623
1650.000000	90.206	-136.1659
1675.000000	90.295	-135.4460
1700.000000	90.394	-134.7573
1725.000000	90.494	-134.0372
1750.000000	90.599	-133.3585
1775.000000	90.707	-132.6515
1800.000000	90.819	-131.9670
1825.000000	90.934	-131.2735
1850.000000	91.057	-130.6253
1875.000000	91.175	-129.9349
1900.000000	91.301	-129.2673
1925.000000	91.423	-128.6685
1950.000000	91.551	-128.0284
1975.000000	91.680	-127.4329
2000.000000	91.813	-126.8211
2030.000000	91.975	-126.1115
2060.000000	92.144	-125.4458
2090.000000	92.320	-124.7662
2120.000000	92.498	-124.1372
2140.000000	92.623	-123.7295
2180.000000	92.877	-122.9918
2200.000000	93.003	-122.6443
2240.000000	93.266	-121.9933
2270.000000	93.469	-121.5661
2300.000000	93.673	-121.1913
2330.000000	93.888	-120.8312
2360.000000	94.101	-120.5488
2400.000000	94.395	-120.2378
2430.000000	94.615	-120.0782
2470.000000	94.919	-119.9511
2500.000000	95.149	-119.9217
2540.000000	95.458	-119.9963
2580.000000	95.772	-120.1744
2620.000000	96.089	-120.4926
2650.000000	96.326	-120.8155
2690.000000	96.644	-121.3729
2720.000000	96.881	-121.8904
2760.000000	97.195	-122.7163
2800.000000	97.502	-123.6857
2850.000000	97.876	-125.1516
2900.000000	98.228	-126.8611
2950.000000	98.562	-128.8394
3000.000000	98.861	-131.0469
3040.000000	99.077	-132.9874
3070.000000	99.220	-134.5326
3110.000000	99.383	-136.6954
3150.000000	99.514	-138.9312
3200.000000	99.628	-141.8233
3250.000000	99.686	-144.7397
3300.000000	99.688	-147.6348
3350.000000	99.639	-150.4140
3400.000000	99.543	-153.0347
3450.000000	99.416	-155.4687
3500.000000	99.258	-157.7313
3550.000000	99.070	-159.8087
3600.000000	98.857	-161.6845
3650.000000	98.621	-163.3331
3700.000000	98.376	-164.7148
3750.000000	98.124	-165.8987
3820.000000	97.764	-167.1767
3870.000000	97.514	-167.8611
3950.000000	97.123	-168.6515
4000.000000	96.887	-168.9585
4060.000000	96.617	-169.1802
4120.000000	96.361	-169.2405
4180.000000	96.120	-169.1795
4250.000000	95.852	-168.9874
4310.000000	95.638	-168.7778
4370.000000	95.441	-168.4883
4440.000000	95.227	-168.0986
4500.000000	95.052	-167.7468
4550.000000	94.908	-167.4473
4620.000000	94.710	-166.9686
4680.000000	94.535	-166.5192
4750.000000	94.330	-165.8450
4820.000000	94.135	-164.9499
4870.000000	94.009	-164.1801
4940.000000	93.873	-163.0348
5000.000000	93.783	-162.0332
5080.000000	93.692	-160.8823
5150.000000	93.633	-159.9907
5220.000000	93.584	-159.1750
5300.000000	93.540	-158.3922
5380.000000	93.501	-157.6826
5450.000000	93.468	-157.1308
5520.000000	93.429	-156.6634
5600.000000	93.386	-156.2150
5700.000000	93.329	-155.8202
5800.000000	93.275	-155.5474
5900.000000	93.210	-155.4465
6000.000000	93.136	-155.4362
6080.000000	93.071	-155.5346
6150.000000	93.000	-155.7151
6220.000000	92.920	-155.9593
6300.000000	92.820	-156.2401
6400.000000	92.669	-156.7400
6500.000000	92.491	-157.3479
6600.000000	92.273	-158.0007
6700.000000	92.011	-158.7024
6800.000000	91.689	-159.4154
6900.000000	91.331	-159.9025
7000.000000	90.961	-160.1121
7100.000000	90.547	-159.8955
7200.000000	90.099	-159.1293
7300.000000	89.655	-157.9145
7400.000000	89.232	-156.0263
7500.000000	88.852	-153.8573
7620.000000	88.455	-150.8044
7750.000000	88.203	-147.2174
7880.000000	87.812	-143.3945
8000.000000	87.524	-139.9912
8120.000000	87.290	-136.2408
8250.000000	87.091	-132.3880
8380.000000	86.941	-128.4471
8500.000000	86.854	-124.8568
8620.000000	86.819	-121.2986
8750.000000	86.787	-117.5188
8850.000000	86.780	-114.7363
9000.000000	86.846	-110.5846
9120.000000	86.948	-107.3754
9250.000000	87.117	-104.0451
9380.000000	87.336	-100.9019
9500.000000	87.590	-98.2898
9620.000000	87.922	-96.0397
9750.000000	88.329	-93.7903
9880.000000	88.809	-92.1623
10000.000000	89.314	-91.3465
10150.000000	90.012	-91.4339
10300.000000	90.728	-93.2425
10440.000000	91.356	-96.5129
10600.000000	91.859	-102.7366
10750.000000	91.957	-110.1957
10900.000000	91.587	-117.9681
11060.000000	90.721	-124.9600
11200.000000	89.718	-129.2007
11380.000000	88.279	-131.8856
11500.000000	87.340	-132.2321
11720.000000	85.700	-130.5938
11800.000000	85.153	-129.4029
12060.000000	83.524	-124.4839
12200.000000	82.688	-120.8104
12410.000000	81.758	-115.0365
12500.000000	81.400	-112.5811
12650.000000	80.844	-108.0431
12800.000000	80.347	-103.2635
13150.000000	79.401	-91.7806
13200.000000	79.289	-90.0765
13400.000000	78.925	-83.2147
13600.000000	78.579	-76.1562
13800.000000	78.457	-69.0516
14000.000000	78.373	-62.0057
14300.000000	78.447	-51.2578
14500.000000	78.561	-44.2369
14750.000000	78.957	-35.2908
15000.000000	79.492	-26.6899
15250.000000	80.135	-18.5154
15500.000000	81.148	-10.7765
15750.000000	82.302	-4.1873
16000.000000	83.825	0.7082
16250.000000	85.780	2.3919
16500.000000	88.160	-2.2369
16750.000000	90.150	-18.5796
17000.000000	89.779	-42.5002
17250.000000	87.314	-56.8633
17500.000000	84.643	-60.4978
17750.000000	82.388	-57.8641
18000.000000	80.600	-52.4831
18250.000000	79.156	-45.9773
18500.000000	78.051	-38.3143
18750.000000	77.214	-30.5043
19000.000000	76.646	-22.6655
19250.000000	76.135	-15.3313
19500.000000	75.946	-8.1855
19750.000000	75.808	-2.3890
