* Measurement data measured by REW V5.20.4
* Source: Headset (2- USB-C to 3.5mm Headphone Jack Adapter), MICROPHONE (Master Volume), R, volume: 0.630
* Format: 256k Log Swept Sine, 1 sweep at -6.0 dBFS with no timing reference
* Dated: 10 Sep, 2022 5:45:04 PM
* REW Settings:
*  C-weighting compensation: Off
*  Target level: 75.0 dB
* Note: 
* Measurement: TE0 L
* Smoothing: None
* Frequency Step: 1/48 octave
* Start Frequency: 20.300 Hz
*
* Freq(Hz)	SPL(dB)	Phase(degrees)
20.299999	94.180	-137.2205
20.600000	93.920	-133.6887
20.900000	94.081	-130.1825
21.200001	94.523	-128.6202
21.400000	94.822	-128.9029
21.799999	95.260	-131.7253
22.000000	95.347	-133.6222
22.400000	95.291	-136.8681
22.700001	95.197	-138.0261
23.000000	95.251	-138.1057
23.299999	95.525	-138.2042
23.600000	95.929	-139.2415
24.000000	96.403	-142.6009
24.299999	96.499	-145.9328
24.700001	96.154	-149.6213
25.000000	95.616	-150.2036
25.400000	94.916	-146.6040
25.799999	94.890	-140.0461
26.200001	95.594	-136.1230
26.500000	96.199	-136.4715
26.900000	96.700	-140.0299
27.200001	96.769	-143.3503
27.600000	96.561	-146.7639
28.000000	96.302	-147.9275
28.500000	96.351	-147.4941
29.000000	96.742	-148.3083
29.500000	96.992	-150.7935
30.000000	96.885	-152.4549
30.400000	96.708	-151.9005
30.700001	96.655	-150.6001
31.100000	96.750	-148.9979
31.500000	96.911	-148.5957
32.000000	96.951	-149.7206
32.500000	96.744	-151.0951
33.000000	96.514	-151.5418
33.500000	96.489	-151.7012
34.000000	96.626	-152.8394
34.500000	96.702	-154.7771
35.000000	96.637	-156.2667
35.500000	96.572	-156.6895
36.000000	96.646	-157.0349
36.500000	96.778	-158.4754
37.000000	96.792	-160.6048
37.500000	96.687	-161.8832
38.200001	96.723	-161.2174
38.700001	96.988	-160.7898
39.500000	97.235	-162.3287
40.000000	97.144	-163.0865
40.599998	97.076	-162.9259
41.200001	97.219	-163.2789
41.799999	97.304	-164.6752
42.500000	97.140	-165.1183
43.099998	97.063	-163.6938
43.700001	97.172	-163.0650
44.400002	97.209	-164.8208
45.000000	97.045	-166.7965
45.500000	96.936	-167.6264
46.200001	97.069	-168.0628
46.799999	97.379	-169.0631
47.500000	97.637	-171.0357
48.200001	97.613	-172.3218
48.700001	97.473	-172.1680
49.400002	97.231	-170.8503
50.000000	97.023	-169.6253
50.799999	96.859	-169.2358
51.500000	96.908	-171.4690
52.200001	96.974	-175.5045
53.000000	96.959	-178.2160
53.799999	97.154	-177.5206
54.500000	97.432	-177.3868
55.200001	97.430	-178.5210
56.000000	97.158	-179.3924
57.000000	97.055	179.8033
58.000000	97.090	177.7902
59.000000	97.083	177.7218
60.000000	97.254	178.5160
60.799999	97.233	177.9172
61.500000	97.112	177.2685
62.200001	97.093	176.3453
63.000000	97.075	175.2972
64.000000	97.090	176.9417
65.000000	97.416	176.5395
66.000000	97.168	172.2982
67.000000	96.839	172.3812
68.000000	97.049	173.4745
69.000000	96.929	172.7602
70.000000	96.763	172.0985
71.000000	96.932	171.0106
72.000000	97.059	169.5379
73.000000	96.860	168.3808
74.000000	96.743	167.8084
75.000000	96.777	166.8578
76.199997	96.714	167.0202
77.500000	96.610	166.2045
78.800003	96.421	165.2359
80.000000	96.447	165.1985
81.199997	96.465	163.3403
82.500000	96.217	163.3252
83.800003	96.307	161.4320
85.000000	96.081	162.0879
86.199997	96.293	162.2512
87.500000	95.856	161.8378
88.500000	95.776	160.7323
90.000000	95.781	160.7899
91.199997	95.888	159.7791
92.500000	95.784	159.9075
93.800003	95.830	157.4207
95.000000	95.559	157.5580
96.199997	95.427	157.4869
97.500000	95.570	158.5608
98.800003	95.404	155.8366
100.000000	94.863	156.6061
101.500000	95.328	155.5114
103.000000	95.093	155.3421
104.400002	95.036	155.0267
106.000000	94.962	154.5729
107.500000	94.792	153.7404
109.000000	94.785	153.1655
110.599998	94.615	153.4426
112.000000	94.662	152.7527
113.800003	94.202	151.0760
115.000000	94.328	150.7236
117.199997	94.053	149.9811
118.000000	93.905	151.7210
120.599998	93.818	149.5515
122.000000	93.570	149.7172
124.099998	93.661	149.1274
125.000000	93.166	147.9776
126.500000	92.993	147.7697
128.000000	93.037	149.6827
131.500000	93.283	149.4752
132.000000	93.013	149.9479
134.000000	92.783	148.3577
136.000000	92.770	147.1872
138.000000	92.188	149.5756
140.000000	91.951	145.2507
143.000000	92.613	147.9228
145.000000	92.307	151.1313
147.500000	92.219	147.9261
150.000000	91.408	150.9848
152.500000	91.822	148.1075
155.000000	90.732	148.0868
157.500000	91.416	150.0732
160.000000	91.339	149.9339
162.500000	90.519	152.4415
165.000000	90.993	149.5330
167.500000	90.344	152.8110
170.000000	90.338	154.6657
172.500000	90.409	157.3289
175.000000	89.816	157.1653
177.500000	89.676	151.5740
180.000000	90.172	152.1739
182.500000	89.442	157.6620
185.000000	89.183	158.6472
187.500000	89.284	157.7899
190.000000	89.241	155.4426
192.500000	87.964	160.1144
195.000000	88.896	158.5739
197.500000	88.912	159.2173
200.000000	88.833	156.8583
203.000000	88.940	161.1584
206.000000	88.738	164.6262
209.000000	88.804	159.9805
212.000000	89.768	170.7650
214.000000	88.781	165.1546
218.000000	88.572	164.5398
220.000000	89.458	164.3928
224.000000	88.759	161.7708
227.000000	89.111	170.2866
230.000000	89.021	168.0677
233.000000	88.999	163.2696
236.000000	89.273	172.9168
240.000000	89.474	169.9847
243.000000	89.297	168.8071
247.000000	89.538	174.9710
250.000000	89.358	174.8008
254.000000	89.756	168.6065
258.000000	88.529	171.9631
262.000000	89.562	174.3549
265.000000	88.646	175.5920
269.000000	90.101	174.7925
272.000000	89.684	172.9490
276.000000	89.317	172.0029
280.000000	89.389	175.0473
285.000000	89.068	174.5745
290.000000	89.029	174.1584
295.000000	89.288	175.3565
300.000000	89.917	175.7786
304.000000	89.533	178.3482
307.000000	88.911	175.1082
311.000000	89.672	-179.6437
315.000000	89.752	179.2261
320.000000	89.192	178.2125
325.000000	89.244	178.1485
330.000000	89.041	177.3948
335.000000	89.623	179.2415
340.000000	89.107	-170.9780
345.000000	88.599	176.2082
350.000000	90.121	-176.8962
355.000000	89.150	178.2389
360.000000	87.371	179.9154
365.000000	87.854	-177.0260
370.000000	88.590	-179.0723
375.000000	89.163	-177.7905
382.000000	89.094	178.5803
387.000000	89.633	-177.5054
395.000000	89.496	-176.9310
400.000000	89.679	-177.0462
406.000000	89.131	-176.3140
412.000000	89.317	-178.4795
418.000000	89.622	-176.6387
425.000000	89.448	-177.5221
431.000000	89.523	-177.0046
437.000000	89.365	-174.8079
444.000000	89.452	-175.0170
450.000000	89.105	-176.2863
455.000000	88.962	-173.9178
462.000000	89.174	-174.3280
468.000000	88.926	-175.5592
475.000000	89.342	-173.5762
482.000000	89.067	-172.2578
487.000000	89.284	-172.8504
494.000000	89.114	-171.6214
500.000000	89.194	-170.9053
508.000000	89.030	-171.3219
515.000000	89.157	-170.2546
522.000000	89.013	-170.8886
530.000000	88.924	-170.3723
538.000000	89.077	-167.5146
545.000000	88.917	-167.7873
552.000000	89.104	-168.0283
560.000000	89.076	-166.8455
570.000000	89.089	-164.5419
580.000000	89.132	-166.3990
590.000000	89.147	-164.2248
600.000000	88.896	-165.0857
608.000000	89.134	-163.1809
615.000000	88.830	-163.9394
622.000000	89.011	-161.7875
630.000000	88.913	-163.1111
640.000000	89.596	-161.5242
650.000000	88.836	-158.2746
660.000000	89.024	-159.5617
670.000000	89.217	-159.8804
680.000000	89.336	-157.9929
690.000000	89.330	-157.5263
700.000000	89.268	-156.2281
710.000000	89.325	-156.2876
720.000000	89.582	-156.0154
730.000000	89.437	-155.1053
740.000000	89.575	-154.6024
750.000000	89.626	-153.7226
762.000000	89.758	-152.7312
775.000000	89.711	-153.2394
788.000000	89.795	-151.9171
800.000000	89.847	-151.7184
812.000000	89.948	-150.6102
825.000000	89.851	-150.3772
838.000000	90.034	-150.2597
850.000000	90.020	-148.6333
862.000000	90.122	-148.6617
875.000000	90.169	-148.0641
885.000000	90.224	-147.6575
900.000000	90.311	-147.1505
912.000000	90.391	-146.6030
925.000000	90.451	-146.0544
938.000000	90.509	-145.6719
950.000000	90.600	-145.2445
962.000000	90.667	-144.8694
975.000000	90.728	-144.3966
988.000000	90.847	-144.1857
1000.000000	90.886	-143.7428
1015.000000	90.980	-143.4903
1030.000000	91.082	-143.2250
1044.000000	91.159	-142.8643
1060.000000	91.235	-142.4724
1075.000000	91.328	-142.2267
1090.000000	91.401	-141.9962
1106.000000	91.447	-141.7747
1120.000000	91.486	-141.5780
1138.000000	91.551	-141.2667
1150.000000	91.576	-141.1012
1172.000000	91.608	-140.6394
1180.000000	91.681	-140.5701
1206.000000	91.746	-140.0996
1220.000000	91.804	-139.7873
1241.000000	91.925	-139.3914
1250.000000	91.968	-139.1322
1265.000000	92.048	-138.9267
1280.000000	92.144	-138.6001
1315.000000	92.331	-137.8896
1320.000000	92.359	-137.8604
1340.000000	92.467	-137.5198
1360.000000	92.610	-137.0372
1380.000000	92.743	-136.7703
1400.000000	92.853	-136.3786
1430.000000	93.013	-135.8260
1450.000000	93.138	-135.4964
1475.000000	93.280	-135.0430
1500.000000	93.416	-134.6254
1525.000000	93.568	-134.1955
1550.000000	93.684	-133.8003
1575.000000	93.798	-133.4115
1600.000000	93.917	-133.0177
1625.000000	94.039	-132.5822
1650.000000	94.162	-132.2169
1675.000000	94.291	-131.8636
1700.000000	94.410	-131.4768
1725.000000	94.542	-131.1104
1750.000000	94.675	-130.7755
1775.000000	94.813	-130.4482
1800.000000	94.944	-130.1489
1825.000000	95.084	-129.9048
1850.000000	95.234	-129.6173
1875.000000	95.367	-129.3799
1900.000000	95.508	-129.1669
1925.000000	95.650	-128.9942
1950.000000	95.794	-128.8377
1975.000000	95.943	-128.6928
2000.000000	96.090	-128.5461
2030.000000	96.270	-128.4282
2060.000000	96.448	-128.3816
2090.000000	96.627	-128.3779
2120.000000	96.809	-128.4328
2140.000000	96.930	-128.5167
2180.000000	97.173	-128.6996
2200.000000	97.292	-128.8514
2240.000000	97.525	-129.2159
2270.000000	97.699	-129.5035
2300.000000	97.868	-129.8615
2330.000000	98.039	-130.2717
2360.000000	98.205	-130.7333
2400.000000	98.425	-131.4566
2430.000000	98.578	-132.0333
2470.000000	98.777	-132.9244
2500.000000	98.926	-133.6183
2540.000000	99.100	-134.6739
2580.000000	99.270	-135.7905
2620.000000	99.412	-136.9576
2650.000000	99.514	-137.8638
2690.000000	99.634	-139.1158
2720.000000	99.716	-140.0669
2760.000000	99.804	-141.3822
2800.000000	99.874	-142.7071
2850.000000	99.939	-144.3586
2900.000000	99.976	-145.9782
2950.000000	99.982	-147.5834
3000.000000	99.972	-149.0749
3040.000000	99.939	-150.2489
3070.000000	99.902	-151.0440
3110.000000	99.849	-152.0746
3150.000000	99.792	-153.0402
3200.000000	99.706	-154.1257
3250.000000	99.607	-155.1387
3300.000000	99.492	-155.9480
3350.000000	99.378	-156.7039
3400.000000	99.264	-157.3212
3450.000000	99.146	-157.8132
3500.000000	99.027	-158.1988
3550.000000	98.919	-158.4697
3600.000000	98.819	-158.6677
3650.000000	98.731	-158.7930
3700.000000	98.643	-158.9328
3750.000000	98.562	-158.9975
3820.000000	98.447	-159.0754
3870.000000	98.372	-159.0840
3950.000000	98.255	-159.0128
4000.000000	98.186	-158.9376
4060.000000	98.109	-158.7539
4120.000000	98.045	-158.5738
4180.000000	97.989	-158.3357
4250.000000	97.926	-158.1120
4310.000000	97.887	-157.8858
4370.000000	97.849	-157.6684
4440.000000	97.823	-157.4218
4500.000000	97.799	-157.2285
4550.000000	97.788	-157.0968
4620.000000	97.774	-156.8354
4680.000000	97.764	-156.6953
4750.000000	97.753	-156.5060
4820.000000	97.760	-156.3521
4870.000000	97.762	-156.2550
4940.000000	97.766	-156.1934
5000.000000	97.769	-156.2044
5080.000000	97.766	-156.3055
5150.000000	97.758	-156.4057
5220.000000	97.748	-156.5399
5300.000000	97.725	-156.7114
5380.000000	97.703	-156.9183
5450.000000	97.688	-157.1564
5520.000000	97.647	-157.3794
5600.000000	97.590	-157.6858
5700.000000	97.504	-158.0404
5800.000000	97.416	-158.3769
5900.000000	97.300	-158.6436
6000.000000	97.189	-158.8499
6080.000000	97.103	-158.9868
6150.000000	97.030	-159.0090
6220.000000	96.955	-159.0418
6300.000000	96.869	-158.9501
6400.000000	96.792	-158.8750
6500.000000	96.735	-158.6582
6600.000000	96.696	-158.4292
6700.000000	96.681	-158.2618
6800.000000	96.702	-158.0418
6900.000000	96.796	-157.9756
7000.000000	96.960	-158.0353
7100.000000	97.170	-158.2602
7200.000000	97.416	-158.7718
7300.000000	97.705	-159.6020
7400.000000	98.021	-160.9005
7500.000000	98.371	-162.7087
7620.000000	98.813	-165.6603
7750.000000	99.379	-169.9677
7880.000000	99.732	-175.6971
8000.000000	99.997	177.4842
8120.000000	100.124	168.9542
8250.000000	99.916	157.4217
8380.000000	99.013	144.8272
8500.000000	97.529	135.2797
8620.000000	95.775	129.6058
8750.000000	93.929	127.1158
8850.000000	92.649	126.7174
9000.000000	90.979	127.6294
9120.000000	89.823	129.0033
9250.000000	88.713	131.0014
9380.000000	87.715	133.1942
9500.000000	86.896	135.2828
9620.000000	86.155	137.5311
9750.000000	85.416	139.9981
9880.000000	84.761	142.5444
10000.000000	84.230	145.1334
10150.000000	83.594	148.0898
10300.000000	83.056	151.3410
10440.000000	82.630	153.9881
10600.000000	82.231	157.3741
10750.000000	81.864	160.8645
10900.000000	81.689	163.5504
11060.000000	81.416	166.7738
11200.000000	81.326	169.1879
11380.000000	81.210	172.2285
11500.000000	81.201	173.9680
11720.000000	81.207	176.6661
11800.000000	81.213	177.3879
12060.000000	81.127	179.5353
12200.000000	81.059	-178.6123
12410.000000	81.166	-175.2381
12500.000000	81.304	-173.3857
12650.000000	81.640	-170.9720
12800.000000	82.101	-168.7414
13150.000000	83.622	-165.8303
13200.000000	83.922	-165.6366
13400.000000	85.172	-165.8922
13600.000000	86.800	-167.7525
13800.000000	88.958	-173.4509
14000.000000	91.602	174.1242
14300.000000	94.480	131.1469
14500.000000	92.989	97.3917
14750.000000	89.526	73.3469
15000.000000	86.698	60.7361
15250.000000	84.663	50.8120
15500.000000	83.142	41.2906
15750.000000	81.996	30.9800
16000.000000	81.138	19.1588
16250.000000	80.651	6.0813
16500.000000	80.329	-9.1663
16750.000000	80.312	-25.8431
17000.000000	80.413	-45.0725
17250.000000	80.611	-66.7168
17500.000000	80.664	-90.4913
17750.000000	80.465	-115.8645
18000.000000	80.035	-142.4202
18250.000000	79.545	-169.2775
18500.000000	78.653	163.9752
18750.000000	77.979	136.7682
19000.000000	77.216	107.7038
19250.000000	76.393	76.0437
19500.000000	75.390	41.3128
19750.000000	74.140	2.4907
