* Measurement data measured by REW V5.20.4
* Source: Headset (2- USB-C to 3.5mm Headphone Jack Adapter), MICROPHONE (Master Volume), R, volume: 0.630
* Format: 256k Log Swept Sine, 1 sweep at -6.0 dBFS with no timing reference
* Dated: 10 Sep, 2022 5:55:44 PM
* REW Settings:
*  C-weighting compensation: Off
*  Target level: 75.0 dB
* Note: 
* Measurement: Timeless R
* Smoothing: None
* Frequency Step: 1/48 octave
* Start Frequency: 20.300 Hz
*
* Freq(Hz)	SPL(dB)	Phase(degrees)
20.299999	96.585	-153.2557
20.600000	96.604	-154.2760
20.900000	96.542	-154.7091
21.200001	96.490	-154.5132
21.400000	96.510	-154.2375
21.799999	96.689	-154.0372
22.000000	96.827	-154.4220
22.400000	97.095	-156.4698
22.700001	97.196	-158.7797
23.000000	97.163	-161.1371
23.299999	97.011	-162.9315
23.600000	96.797	-163.7814
24.000000	96.544	-163.3290
24.299999	96.463	-162.2592
24.700001	96.512	-160.8238
25.000000	96.607	-160.2173
25.400000	96.725	-160.0886
25.799999	96.803	-160.3908
26.200001	96.872	-160.9243
26.500000	96.931	-161.5336
26.900000	96.993	-162.6891
27.200001	96.996	-163.6867
27.600000	96.924	-164.7954
28.000000	96.802	-165.1766
28.500000	96.717	-164.6549
29.000000	96.787	-164.2671
29.500000	96.895	-165.0813
30.000000	96.908	-166.7687
30.400000	96.881	-168.0863
30.700001	96.886	-168.9055
31.100000	96.968	-169.9551
31.500000	97.098	-171.1928
32.000000	97.193	-172.8734
32.500000	97.114	-173.8714
33.000000	96.930	-173.5715
33.500000	96.782	-172.6184
34.000000	96.703	-172.3721
34.500000	96.622	-173.2588
35.000000	96.542	-174.5867
35.500000	96.568	-175.6910
36.000000	96.737	-176.6854
36.500000	96.929	-177.8058
37.000000	97.002	-178.7059
37.500000	96.956	-178.8775
38.200001	96.917	-178.3721
38.700001	96.959	-178.5965
39.500000	96.907	179.8668
40.000000	96.754	179.4458
40.599998	96.601	-179.9544
41.200001	96.612	-179.4723
41.799999	96.679	179.6687
42.500000	96.630	177.8981
43.099998	96.522	177.5392
43.700001	96.526	178.2774
44.400002	96.639	178.4425
45.000000	96.631	177.2529
45.500000	96.544	176.0847
46.200001	96.506	175.0539
46.799999	96.585	174.5152
47.500000	96.552	174.4580
48.200001	96.372	175.6885
48.700001	96.317	176.4293
49.400002	96.363	175.2689
50.000000	96.383	173.0244
50.799999	96.420	171.5689
51.500000	96.502	171.8473
52.200001	96.412	172.2141
53.000000	96.144	172.1777
53.799999	95.989	170.1527
54.500000	95.831	168.0476
55.200001	95.770	168.9455
56.000000	96.132	171.0175
57.000000	96.202	169.0883
58.000000	95.722	168.3526
59.000000	95.893	168.2486
60.000000	95.999	167.4142
60.799999	95.965	167.7772
61.500000	95.907	167.3445
62.200001	95.769	166.4379
63.000000	95.648	166.2407
64.000000	95.738	167.3204
65.000000	95.928	166.5494
66.000000	95.633	163.3811
67.000000	95.274	163.8440
68.000000	95.603	165.4184
69.000000	95.695	164.9191
70.000000	95.483	164.5329
71.000000	95.349	162.7030
72.000000	95.188	161.3103
73.000000	95.230	162.1712
74.000000	95.305	162.5118
75.000000	95.205	162.8554
76.199997	95.347	161.9577
77.500000	95.171	159.9119
78.800003	95.036	161.4211
80.000000	95.003	160.5338
81.199997	94.854	160.4405
82.500000	94.840	160.1556
83.800003	94.768	159.8343
85.000000	94.775	159.4928
86.199997	94.889	157.6627
87.500000	94.594	156.4275
88.500000	94.544	157.9112
90.000000	94.650	159.0665
91.199997	94.602	157.2963
92.500000	94.364	158.4509
93.800003	94.425	157.2894
95.000000	94.227	157.8858
96.199997	94.314	157.7454
97.500000	94.135	157.1730
98.800003	94.113	157.0849
100.000000	94.190	155.8770
101.500000	93.990	156.1253
103.000000	93.983	156.2379
104.400002	93.668	156.0367
106.000000	93.995	155.9985
107.500000	93.692	156.0753
109.000000	93.672	155.7998
110.599998	93.645	155.5572
112.000000	93.620	154.9714
113.800003	93.543	155.1711
115.000000	93.324	155.0737
117.199997	93.402	154.0755
118.000000	93.340	154.5150
120.599998	93.294	153.9794
122.000000	93.116	154.4788
124.099998	93.050	154.1365
125.000000	92.907	154.7390
126.500000	93.164	154.7598
128.000000	92.765	154.1124
131.500000	92.663	152.8930
132.000000	92.713	152.8452
134.000000	92.535	153.3572
136.000000	92.769	155.8084
138.000000	92.574	153.5046
140.000000	92.364	153.5987
143.000000	92.265	153.0846
145.000000	92.382	152.8188
147.500000	92.171	153.9414
150.000000	92.166	153.8323
152.500000	92.197	153.4266
155.000000	91.992	154.1425
157.500000	91.851	153.5588
160.000000	91.823	155.0295
162.500000	91.436	153.7449
165.000000	91.476	153.5835
167.500000	91.742	153.3326
170.000000	91.344	153.4026
172.500000	91.422	154.5175
175.000000	91.323	154.7020
177.500000	91.272	154.6598
180.000000	91.256	155.6140
182.500000	91.059	155.4666
185.000000	91.055	153.6454
187.500000	91.080	154.8948
190.000000	90.951	155.5999
192.500000	90.999	155.2542
195.000000	90.858	155.3986
197.500000	90.668	155.4226
200.000000	90.698	155.5958
203.000000	90.420	155.0884
206.000000	90.580	155.4003
209.000000	90.542	155.5547
212.000000	90.564	155.7199
214.000000	90.443	157.2448
218.000000	90.210	156.1199
220.000000	90.348	154.4337
224.000000	90.144	156.3548
227.000000	90.111	158.0301
230.000000	90.077	156.5410
233.000000	89.944	157.2876
236.000000	89.903	156.9537
240.000000	89.931	158.2181
243.000000	89.862	157.8918
247.000000	89.961	158.6192
250.000000	89.458	159.0104
254.000000	89.669	159.3665
258.000000	89.590	158.1847
262.000000	89.296	158.9499
265.000000	89.420	161.0886
269.000000	89.499	160.7268
272.000000	89.513	160.5338
276.000000	89.280	160.2172
280.000000	89.321	161.2192
285.000000	89.047	160.3542
290.000000	89.034	160.8396
295.000000	89.150	161.7588
300.000000	88.933	161.3992
304.000000	89.053	162.7012
307.000000	88.885	162.0724
311.000000	88.880	163.1404
315.000000	88.678	164.2751
320.000000	88.763	163.5493
325.000000	88.564	163.1867
330.000000	88.463	164.7636
335.000000	88.507	164.9448
340.000000	88.523	165.2317
345.000000	88.564	167.3365
350.000000	88.327	167.6065
355.000000	88.271	166.2534
360.000000	88.427	166.1386
365.000000	88.490	166.6982
370.000000	88.436	167.0294
375.000000	88.278	168.7013
382.000000	88.145	168.7680
387.000000	88.173	169.4132
395.000000	88.093	169.9016
400.000000	88.083	170.5334
406.000000	87.912	170.8667
412.000000	87.905	171.4676
418.000000	87.937	172.3105
425.000000	87.783	172.6230
431.000000	87.923	173.2200
437.000000	87.786	173.4634
444.000000	87.738	174.2759
450.000000	87.729	174.7572
455.000000	87.659	175.8228
462.000000	87.749	177.1412
468.000000	87.733	175.2495
475.000000	87.495	176.6710
482.000000	87.596	175.9708
487.000000	87.293	177.4848
494.000000	87.422	177.1916
500.000000	87.563	179.1644
508.000000	88.080	178.2595
515.000000	87.603	-177.4253
522.000000	87.534	-177.9044
530.000000	87.528	179.6083
538.000000	86.924	-176.1421
545.000000	87.193	-178.0277
552.000000	87.777	-178.1454
560.000000	87.372	-175.9980
570.000000	87.039	-176.1838
580.000000	87.131	-174.0435
590.000000	87.400	-175.4432
600.000000	87.479	-174.1933
608.000000	87.185	-173.1549
615.000000	87.454	-175.1334
622.000000	87.154	-171.8228
630.000000	87.381	-171.9457
640.000000	87.461	-166.6883
650.000000	87.227	-171.9700
660.000000	87.459	-169.2181
670.000000	87.276	-168.3406
680.000000	87.312	-167.2972
690.000000	87.460	-166.4600
700.000000	87.324	-166.9890
710.000000	87.376	-165.9250
720.000000	87.356	-164.4089
730.000000	87.585	-162.8580
740.000000	87.488	-164.2104
750.000000	87.490	-162.1001
762.000000	87.352	-162.4724
775.000000	87.585	-161.4712
788.000000	87.630	-159.9700
800.000000	87.619	-160.0024
812.000000	87.638	-158.1909
825.000000	87.551	-157.3204
838.000000	87.728	-155.5679
850.000000	87.726	-157.2093
862.000000	87.772	-154.0925
875.000000	87.778	-154.6675
885.000000	87.661	-154.1701
900.000000	88.027	-152.3344
912.000000	87.840	-152.4496
925.000000	88.093	-151.3956
938.000000	88.119	-150.8001
950.000000	88.144	-149.0493
962.000000	88.254	-148.4442
975.000000	88.236	-148.1864
988.000000	88.454	-149.5313
1000.000000	88.630	-146.3399
1015.000000	88.669	-146.7372
1030.000000	88.625	-146.9353
1044.000000	88.915	-145.9517
1060.000000	88.908	-145.2350
1075.000000	89.037	-144.5085
1090.000000	89.243	-145.2517
1106.000000	89.194	-142.5759
1120.000000	89.298	-143.9500
1138.000000	89.481	-143.0034
1150.000000	89.452	-143.1069
1172.000000	89.588	-142.2752
1180.000000	89.638	-142.6907
1206.000000	89.798	-140.0719
1220.000000	89.816	-141.4367
1241.000000	90.020	-140.7374
1250.000000	90.053	-140.9179
1265.000000	90.197	-140.1558
1280.000000	90.311	-140.1291
1315.000000	90.637	-138.8900
1320.000000	90.442	-139.6695
1340.000000	90.713	-139.6718
1360.000000	90.876	-139.0859
1380.000000	91.020	-137.9421
1400.000000	91.223	-137.6865
1430.000000	91.309	-137.6552
1450.000000	91.608	-137.4052
1475.000000	91.705	-136.8526
1500.000000	91.878	-136.6080
1525.000000	92.103	-136.4380
1550.000000	92.240	-135.8278
1575.000000	92.375	-135.6760
1600.000000	92.600	-135.7769
1625.000000	92.785	-135.0427
1650.000000	92.756	-134.0833
1675.000000	93.197	-134.4254
1700.000000	93.360	-134.1473
1725.000000	93.440	-133.7145
1750.000000	93.791	-134.1198
1775.000000	94.100	-133.6959
1800.000000	94.210	-134.6309
1825.000000	94.481	-134.4944
1850.000000	94.712	-135.1324
1875.000000	94.925	-136.1305
1900.000000	95.051	-136.6824
1925.000000	95.216	-136.8890
1950.000000	95.405	-137.9795
1975.000000	95.514	-138.5182
2000.000000	95.682	-139.2449
2030.000000	95.845	-140.1568
2060.000000	95.996	-141.1580
2090.000000	96.144	-142.2352
2120.000000	96.308	-143.2235
2140.000000	96.402	-143.9725
2180.000000	96.552	-145.5046
2200.000000	96.636	-146.2905
2240.000000	96.763	-147.8421
2270.000000	96.843	-149.0861
2300.000000	96.935	-150.3988
2330.000000	97.008	-151.7021
2360.000000	97.054	-153.1124
2400.000000	97.108	-155.0868
2430.000000	97.130	-156.7713
2470.000000	97.099	-159.0624
2500.000000	97.025	-160.9718
2540.000000	96.764	-163.5011
2580.000000	96.322	-164.6334
2620.000000	95.949	-163.7989
2650.000000	95.869	-162.8032
2690.000000	95.869	-161.9845
2720.000000	95.902	-161.6210
2760.000000	95.985	-161.4409
2800.000000	96.100	-161.7677
2850.000000	96.185	-162.8037
2900.000000	96.188	-163.8950
2950.000000	96.167	-164.6700
3000.000000	96.158	-165.3867
3040.000000	96.169	-165.8251
3070.000000	96.204	-166.2463
3110.000000	96.259	-166.9314
3150.000000	96.321	-167.7823
3200.000000	96.414	-169.1029
3250.000000	96.547	-170.7836
3300.000000	96.727	-173.3096
3350.000000	96.914	-177.3288
3400.000000	96.930	176.1804
3450.000000	96.342	167.2157
3500.000000	94.580	160.3635
3550.000000	92.430	163.8423
3600.000000	91.508	173.6031
3650.000000	91.540	179.8058
3700.000000	91.477	-178.3808
3750.000000	91.005	-175.2717
3820.000000	90.947	-167.4737
3870.000000	91.264	-163.7565
3950.000000	91.779	-160.7201
4000.000000	92.038	-159.6554
4060.000000	92.315	-158.7966
4120.000000	92.556	-158.3690
4180.000000	92.779	-158.2485
4250.000000	92.995	-158.6170
4310.000000	93.093	-159.0342
4370.000000	93.165	-159.2158
4440.000000	93.294	-159.3486
4500.000000	93.446	-159.8970
4550.000000	93.552	-160.7560
4620.000000	93.629	-162.4662
4680.000000	93.639	-164.0420
4750.000000	93.627	-166.5271
4820.000000	93.355	-170.3654
4870.000000	92.825	-172.9417
4940.000000	91.699	-173.0086
5000.000000	90.917	-168.7824
5080.000000	90.682	-161.6808
5150.000000	90.930	-157.4736
5220.000000	91.245	-155.2266
5300.000000	91.555	-153.9432
5380.000000	91.823	-153.5497
5450.000000	91.987	-153.8689
5520.000000	92.031	-154.3102
5600.000000	92.006	-154.5491
5700.000000	91.976	-154.3248
5800.000000	92.056	-154.2921
5900.000000	92.093	-155.3399
6000.000000	91.974	-156.6954
6080.000000	91.750	-157.7713
6150.000000	91.435	-158.1031
6220.000000	91.087	-157.3727
6300.000000	90.805	-155.3270
6400.000000	90.733	-152.4223
6500.000000	90.846	-150.5982
6600.000000	90.967	-149.3687
6700.000000	91.354	-149.0884
6800.000000	91.535	-153.7564
6900.000000	90.373	-159.0930
7000.000000	88.693	-150.6021
7100.000000	89.133	-136.7689
7200.000000	90.502	-130.5989
7300.000000	91.726	-129.5882
7400.000000	92.724	-130.4533
7500.000000	93.556	-132.2024
7620.000000	94.433	-134.9815
7750.000000	95.447	-138.3091
7880.000000	96.392	-142.6921
8000.000000	97.366	-149.4249
8120.000000	98.199	-159.3063
8250.000000	98.769	-175.1636
8380.000000	97.787	166.4437
8500.000000	95.999	155.8987
8620.000000	94.262	150.6489
8750.000000	92.647	147.8631
8850.000000	91.594	146.3553
9000.000000	90.004	143.7254
9120.000000	88.526	143.1188
9250.000000	87.024	145.0676
9380.000000	85.757	148.8135
9500.000000	84.852	153.4378
9620.000000	84.258	158.5701
9750.000000	83.972	162.7863
9880.000000	83.776	165.4287
10000.000000	83.598	166.5050
10150.000000	83.202	167.9319
10300.000000	82.775	169.0018
10440.000000	82.300	170.6348
10600.000000	81.781	173.2346
10750.000000	81.503	176.5076
10900.000000	81.038	177.6602
11060.000000	79.792	-177.7176
11200.000000	79.401	-164.1221
11380.000000	81.072	-150.5885
11500.000000	82.495	-147.3583
11720.000000	84.831	-148.4725
11800.000000	85.596	-150.2368
12060.000000	87.857	-160.1893
12200.000000	88.830	-168.2165
12410.000000	89.787	176.7374
12500.000000	89.959	169.7193
12650.000000	89.948	158.5518
12800.000000	89.698	148.1418
13150.000000	88.326	126.0395
13200.000000	88.045	123.4387
13400.000000	86.880	114.7049
13600.000000	85.908	107.8739
13800.000000	85.150	100.9044
14000.000000	84.416	93.7551
14300.000000	83.283	83.3361
14500.000000	82.733	77.5302
14750.000000	82.517	68.2116
15000.000000	82.465	54.6367
15250.000000	82.107	35.9151
15500.000000	80.944	15.0125
15750.000000	78.937	-3.9770
16000.000000	76.703	-17.3102
16250.000000	75.162	-27.5498
16500.000000	73.960	-37.7875
16750.000000	73.034	-48.7970
17000.000000	72.191	-59.3079
17250.000000	71.871	-68.7157
17500.000000	72.066	-78.3158
17750.000000	73.128	-88.9506
18000.000000	74.453	-107.3994
18250.000000	76.276	-130.4540
18500.000000	78.192	-160.1118
18750.000000	79.924	157.1447
19000.000000	79.755	103.1222
19250.000000	77.243	51.0154
19500.000000	72.736	3.4875
19750.000000	68.179	-29.8838
