* Measurement data measured by REW V5.20.4
* Source: Headset (2- USB-C to 3.5mm Headphone Jack Adapter), MICROPHONE (Master Volume), R, volume: 0.630
* Format: 256k Log Swept Sine, 1 sweep at -6.0 dBFS with no timing reference
* Dated: 10 Sep, 2022 5:40:32 PM
* REW Settings:
*  C-weighting compensation: Off
*  Target level: 75.0 dB
* Note: 
* Measurement: Vari S2 R F
* Smoothing: None
* Frequency Step: 1/48 octave
* Start Frequency: 20.300 Hz
*
* Freq(Hz)	SPL(dB)	Phase(degrees)
20.299999	96.204	17.8612
20.600000	96.318	16.6020
20.900000	96.421	15.0665
21.200001	96.497	13.5159
21.400000	96.538	12.6324
21.799999	96.611	11.3598
22.000000	96.651	10.9876
22.400000	96.743	10.6476
22.700001	96.812	10.5660
23.000000	96.863	10.4920
23.299999	96.886	10.3688
23.600000	96.881	10.1560
24.000000	96.846	9.6421
24.299999	96.811	8.9914
24.700001	96.754	7.6988
25.000000	96.698	6.4752
25.400000	96.600	4.7595
25.799999	96.491	3.3455
26.200001	96.409	2.4913
26.500000	96.391	2.1636
26.900000	96.434	1.8720
27.200001	96.499	1.5345
27.600000	96.598	0.7415
28.000000	96.665	-0.4333
28.500000	96.666	-2.1461
29.000000	96.566	-3.6073
29.500000	96.398	-4.2832
30.000000	96.247	-3.8944
30.400000	96.212	-3.0666
30.700001	96.254	-2.4594
31.100000	96.375	-2.1094
31.500000	96.518	-2.4984
32.000000	96.637	-3.8641
32.500000	96.639	-5.5966
33.000000	96.530	-6.9664
33.500000	96.356	-7.5025
34.000000	96.213	-7.1722
34.500000	96.186	-6.6068
35.000000	96.250	-6.6760
35.500000	96.295	-7.6628
36.000000	96.255	-8.9205
36.500000	96.188	-9.7088
37.000000	96.210	-10.1705
37.500000	96.303	-11.1402
38.200001	96.268	-13.4586
38.700001	96.058	-14.3764
39.500000	95.904	-13.1465
40.000000	96.064	-12.6528
40.599998	96.211	-13.7148
41.200001	96.073	-15.0935
41.799999	95.841	-15.4808
42.500000	95.763	-15.9416
43.099998	95.746	-17.3945
43.700001	95.650	-18.4519
44.400002	95.622	-18.1593
45.000000	95.732	-18.0839
45.500000	95.756	-18.8525
46.200001	95.588	-19.9325
46.799999	95.493	-19.9314
47.500000	95.634	-20.3031
48.200001	95.695	-21.8553
48.700001	95.532	-22.5111
49.400002	95.234	-21.6535
50.000000	95.173	-20.9691
50.799999	95.159	-22.6973
51.500000	94.993	-24.4435
52.200001	94.961	-24.2838
53.000000	95.181	-24.1929
53.799999	95.124	-25.1763
54.500000	94.891	-25.0579
55.200001	94.873	-25.0302
56.000000	94.961	-26.7812
57.000000	94.919	-27.6783
58.000000	94.983	-27.0174
59.000000	94.744	-27.3297
60.000000	94.499	-27.4355
60.799999	94.470	-28.7274
61.500000	94.387	-29.5428
62.200001	94.351	-29.3866
63.000000	94.347	-29.9906
64.000000	94.087	-31.3889
65.000000	94.177	-30.5171
66.000000	94.550	-31.4245
67.000000	94.214	-32.4254
68.000000	93.806	-31.6460
69.000000	93.854	-33.2392
70.000000	93.907	-35.5132
71.000000	93.735	-34.8435
72.000000	93.739	-33.4415
73.000000	93.724	-35.3605
74.000000	93.472	-35.9529
75.000000	93.432	-34.8340
76.199997	93.208	-35.7127
77.500000	93.072	-36.8232
78.800003	93.128	-37.5073
80.000000	92.920	-37.8975
81.199997	92.689	-37.2832
82.500000	92.702	-37.9299
83.800003	92.501	-39.1546
85.000000	92.674	-39.2789
86.199997	92.559	-38.0649
87.500000	92.160	-37.4738
88.500000	92.083	-39.3141
90.000000	92.263	-40.8861
91.199997	92.074	-39.2999
92.500000	91.930	-40.5277
93.800003	91.928	-41.1337
95.000000	91.843	-41.1225
96.199997	91.612	-41.8749
97.500000	91.513	-40.7588
98.800003	91.588	-40.4454
100.000000	91.145	-40.2540
101.500000	91.216	-41.9672
103.000000	91.094	-43.1152
104.400002	91.037	-43.1190
106.000000	90.815	-41.4743
107.500000	90.750	-42.3815
109.000000	90.652	-43.5935
110.599998	90.487	-41.3072
112.000000	90.388	-42.0898
113.800003	90.260	-44.1951
115.000000	90.186	-43.0227
117.199997	89.904	-43.2802
118.000000	89.982	-43.9807
120.599998	89.714	-43.0693
122.000000	89.503	-42.7386
124.099998	89.351	-42.1123
125.000000	89.202	-42.7067
126.500000	89.240	-42.1321
128.000000	89.069	-42.5527
131.500000	88.802	-41.8453
132.000000	88.816	-42.1244
134.000000	88.667	-42.1504
136.000000	88.453	-42.3215
138.000000	88.728	-42.2775
140.000000	88.305	-42.5714
143.000000	87.964	-41.7757
145.000000	88.031	-42.1780
147.500000	87.350	-40.7860
150.000000	87.786	-39.9107
152.500000	87.511	-39.4693
155.000000	87.279	-40.7042
157.500000	87.274	-38.8756
160.000000	87.137	-40.3058
162.500000	86.764	-39.7051
165.000000	86.963	-39.0361
167.500000	86.886	-35.9752
170.000000	86.248	-35.4078
172.500000	86.323	-36.8308
175.000000	86.233	-34.6746
177.500000	85.878	-34.1238
180.000000	85.624	-33.4190
182.500000	85.987	-32.0051
185.000000	85.638	-31.8581
187.500000	85.694	-32.3503
190.000000	85.698	-29.9016
192.500000	85.054	-31.4649
195.000000	85.440	-31.3319
197.500000	85.394	-29.1290
200.000000	85.290	-27.5342
203.000000	85.173	-27.8201
206.000000	85.006	-28.0339
209.000000	84.974	-26.7238
212.000000	85.045	-25.6142
214.000000	84.917	-25.6744
218.000000	84.848	-23.7612
220.000000	84.694	-23.3191
224.000000	84.798	-22.2638
227.000000	84.343	-22.3365
230.000000	84.774	-20.1481
233.000000	84.624	-18.0793
236.000000	84.604	-18.8926
240.000000	84.600	-17.8621
243.000000	84.605	-17.1166
247.000000	84.470	-16.1291
250.000000	84.368	-14.7939
254.000000	84.372	-14.6884
258.000000	84.656	-12.9674
262.000000	84.532	-11.9898
265.000000	84.474	-12.1182
269.000000	84.346	-11.3738
272.000000	84.478	-12.8746
276.000000	84.545	-8.0982
280.000000	84.530	-8.8514
285.000000	84.388	-8.9017
290.000000	84.464	-6.9128
295.000000	84.342	-6.4700
300.000000	84.727	-7.7083
304.000000	84.557	-3.4222
307.000000	84.657	-4.4699
311.000000	84.467	-4.1826
315.000000	84.372	-2.9820
320.000000	84.647	-2.4494
325.000000	84.624	-3.9737
330.000000	84.784	-0.3554
335.000000	84.593	0.6788
340.000000	84.419	0.2892
345.000000	84.677	1.5080
350.000000	84.892	2.1631
355.000000	84.740	2.4813
360.000000	84.776	2.7204
365.000000	84.831	3.7206
370.000000	84.911	3.3435
375.000000	84.972	5.1770
382.000000	84.973	7.2437
387.000000	85.049	5.1744
395.000000	84.970	6.3158
400.000000	85.104	5.9160
406.000000	85.160	7.2273
412.000000	85.131	8.2359
418.000000	85.190	9.0280
425.000000	85.160	9.4281
431.000000	85.346	8.3334
437.000000	85.187	9.3460
444.000000	85.384	9.7639
450.000000	85.309	9.6662
455.000000	85.321	10.3996
462.000000	85.369	11.0963
468.000000	85.320	10.9143
475.000000	85.401	12.8358
482.000000	85.582	13.1765
487.000000	85.431	12.7137
494.000000	85.230	12.8078
500.000000	85.537	13.6147
508.000000	85.499	14.8178
515.000000	85.662	14.5530
522.000000	85.680	15.5067
530.000000	85.698	16.1110
538.000000	85.645	14.2825
545.000000	85.825	16.5249
552.000000	85.856	16.7411
560.000000	85.767	18.2474
570.000000	85.846	18.3557
580.000000	85.942	18.4790
590.000000	86.009	18.7263
600.000000	86.098	19.8904
608.000000	86.002	20.4884
615.000000	85.963	20.3849
622.000000	86.146	20.2983
630.000000	86.133	20.2987
640.000000	86.134	21.0694
650.000000	86.187	21.5073
660.000000	86.208	22.4295
670.000000	86.188	22.7493
680.000000	86.254	23.0637
690.000000	86.318	23.7933
700.000000	86.303	24.0632
710.000000	86.283	25.4376
720.000000	86.507	25.6243
730.000000	86.501	26.0624
740.000000	86.444	26.5114
750.000000	86.614	27.3431
762.000000	86.594	27.6917
775.000000	86.612	29.0593
788.000000	86.679	28.9949
800.000000	86.811	30.1375
812.000000	86.782	30.6605
825.000000	86.924	30.9056
838.000000	86.980	32.0969
850.000000	87.050	31.9594
862.000000	87.055	32.7855
875.000000	87.146	33.5937
885.000000	87.166	33.9272
900.000000	87.318	34.3996
912.000000	87.394	35.3730
925.000000	87.512	34.9272
938.000000	87.609	36.2815
950.000000	87.772	36.3447
962.000000	87.694	37.0508
975.000000	87.842	36.8944
988.000000	87.952	37.4627
1000.000000	88.079	37.7319
1015.000000	88.220	38.7474
1030.000000	88.323	38.5596
1044.000000	88.355	39.2448
1060.000000	88.502	39.7473
1075.000000	88.620	39.4181
1090.000000	88.731	40.3524
1106.000000	88.888	40.4373
1120.000000	88.994	40.2159
1138.000000	89.036	41.0118
1150.000000	89.066	40.3150
1172.000000	89.134	40.4386
1180.000000	89.189	40.5031
1206.000000	89.379	40.5313
1220.000000	89.503	41.0737
1241.000000	89.623	40.9983
1250.000000	89.708	41.0987
1265.000000	89.755	41.3528
1280.000000	89.825	41.1853
1315.000000	90.071	41.2538
1320.000000	90.077	41.3523
1340.000000	90.216	41.2884
1360.000000	90.373	41.5233
1380.000000	90.499	41.7145
1400.000000	90.590	41.7101
1430.000000	90.758	42.0335
1450.000000	90.859	42.0395
1475.000000	91.020	42.3143
1500.000000	91.162	42.4286
1525.000000	91.282	42.6845
1550.000000	91.399	42.7955
1575.000000	91.502	43.2193
1600.000000	91.637	43.2316
1625.000000	91.734	43.5312
1650.000000	91.841	43.8889
1675.000000	91.966	43.9889
1700.000000	92.083	44.1715
1725.000000	92.193	44.4550
1750.000000	92.315	44.5954
1775.000000	92.437	44.7711
1800.000000	92.580	44.9301
1825.000000	92.694	45.1880
1850.000000	92.827	45.3897
1875.000000	92.958	45.5252
1900.000000	93.080	45.6409
1925.000000	93.224	45.7628
1950.000000	93.370	45.8547
1975.000000	93.507	45.9434
2000.000000	93.637	45.9584
2030.000000	93.810	46.0311
2060.000000	93.987	46.0396
2090.000000	94.156	45.9957
2120.000000	94.341	45.9131
2140.000000	94.457	45.8146
2180.000000	94.698	45.6072
2200.000000	94.814	45.4800
2240.000000	95.055	45.0953
2270.000000	95.236	44.7743
2300.000000	95.416	44.3727
2330.000000	95.596	43.9287
2360.000000	95.776	43.4200
2400.000000	96.013	42.6623
2430.000000	96.177	41.9933
2470.000000	96.403	41.0123
2500.000000	96.563	40.2115
2540.000000	96.765	39.0159
2580.000000	96.956	37.7760
2620.000000	97.129	36.3704
2650.000000	97.252	35.2700
2690.000000	97.390	33.7633
2720.000000	97.484	32.5514
2760.000000	97.588	30.9097
2800.000000	97.673	29.2369
2850.000000	97.740	27.1107
2900.000000	97.766	25.0006
2950.000000	97.755	22.9093
3000.000000	97.720	20.9256
3040.000000	97.662	19.4030
3070.000000	97.607	18.2996
3110.000000	97.523	16.9623
3150.000000	97.425	15.6582
3200.000000	97.294	14.1912
3250.000000	97.148	12.8327
3300.000000	97.002	11.5988
3350.000000	96.846	10.4788
3400.000000	96.696	9.4304
3450.000000	96.533	8.4414
3500.000000	96.372	7.5307
3550.000000	96.205	6.6670
3600.000000	96.037	5.8802
3650.000000	95.853	5.2178
3700.000000	95.670	4.6695
3750.000000	95.485	4.2491
3820.000000	95.237	3.7798
3870.000000	95.064	3.5803
3950.000000	94.808	3.3910
4000.000000	94.654	3.3286
4060.000000	94.468	3.2851
4120.000000	94.291	3.3143
4180.000000	94.109	3.4244
4250.000000	93.914	3.6697
4310.000000	93.747	4.0476
4370.000000	93.600	4.4977
4440.000000	93.457	5.1194
4500.000000	93.354	5.6545
4550.000000	93.286	6.0714
4620.000000	93.195	6.7099
4680.000000	93.137	7.2358
4750.000000	93.078	7.7458
4820.000000	93.027	8.2192
4870.000000	92.989	8.4918
4940.000000	92.951	8.8490
5000.000000	92.904	9.1157
5080.000000	92.868	9.4121
5150.000000	92.834	9.6911
5220.000000	92.784	9.8145
5300.000000	92.724	9.9723
5380.000000	92.673	10.0913
5450.000000	92.618	10.2356
5520.000000	92.547	10.3135
5600.000000	92.449	10.4569
5700.000000	92.319	10.6630
5800.000000	92.182	10.9194
5900.000000	92.045	11.3187
6000.000000	91.898	11.8382
6080.000000	91.780	12.2796
6150.000000	91.676	12.8018
6220.000000	91.589	13.3541
6300.000000	91.484	14.0304
6400.000000	91.374	15.1673
6500.000000	91.269	16.3147
6600.000000	91.206	17.6231
6700.000000	91.183	19.0461
6800.000000	91.207	20.4222
6900.000000	91.308	21.7271
7000.000000	91.479	22.9141
7100.000000	91.704	23.8514
7200.000000	91.963	24.4922
7300.000000	92.246	24.6983
7400.000000	92.545	24.5448
7500.000000	92.853	23.9422
7620.000000	93.259	22.1911
7750.000000	93.681	19.2031
7880.000000	93.784	15.1299
8000.000000	93.687	10.7938
8120.000000	93.362	6.0685
8250.000000	92.772	1.2893
8380.000000	91.955	-2.3823
8500.000000	91.047	-4.6140
8620.000000	90.055	-5.0117
8750.000000	89.051	-2.6771
8850.000000	88.759	0.6080
9000.000000	88.733	0.1335
9120.000000	88.300	-2.9824
9250.000000	87.395	-4.7541
9380.000000	86.481	-4.1771
9500.000000	85.795	-2.8957
9620.000000	85.208	-1.2336
9750.000000	84.658	0.6810
9880.000000	84.210	2.4970
10000.000000	83.898	4.4802
10150.000000	83.557	6.2902
10300.000000	83.327	7.9927
10440.000000	83.250	9.2263
10600.000000	83.204	10.1970
10750.000000	83.226	10.3996
10900.000000	83.326	9.6253
11060.000000	83.559	8.9491
11200.000000	83.710	7.0348
11380.000000	83.841	3.9538
11500.000000	83.850	1.1878
11720.000000	83.690	-3.5574
11800.000000	83.514	-5.3080
12060.000000	83.055	-8.7623
12200.000000	82.796	-9.7188
12410.000000	82.734	-10.6634
12500.000000	82.720	-11.2901
12650.000000	82.761	-12.6598
12800.000000	82.724	-14.3296
13150.000000	82.563	-18.5770
13200.000000	82.543	-19.0027
13400.000000	82.364	-21.4096
13600.000000	82.145	-23.0792
13800.000000	82.054	-25.0558
14000.000000	82.002	-26.8301
14300.000000	81.986	-30.2303
14500.000000	82.005	-33.1980
14750.000000	82.055	-37.8753
15000.000000	82.126	-43.6741
15250.000000	82.274	-51.4056
15500.000000	82.223	-61.4709
15750.000000	82.008	-74.3160
16000.000000	81.462	-89.2774
16250.000000	80.595	-106.1120
16500.000000	79.336	-123.9410
16750.000000	78.059	-142.4268
17000.000000	76.704	-161.8042
17250.000000	75.440	177.3683
17500.000000	74.388	154.9573
17750.000000	73.776	131.8555
18000.000000	73.234	106.9018
18250.000000	73.642	81.4232
18500.000000	73.905	53.0844
18750.000000	74.439	24.8295
19000.000000	75.099	-7.3594
19250.000000	75.504	-42.2896
19500.000000	75.721	-82.4970
19750.000000	74.991	-125.8821
