* Measurement data measured by REW V5.20.4
* Source: Headset (2- USB-C to 3.5mm Headphone Jack Adapter), MICROPHONE (Master Volume), R, volume: 0.630
* Format: 256k Log Swept Sine, 1 sweep at -6.0 dBFS with no timing reference
* Dated: 10 Sep, 2022 5:38:17 PM
* REW Settings:
*  C-weighting compensation: Off
*  Target level: 75.0 dB
* Note: 
* Measurement: Vari S2 L F
* Smoothing: None
* Frequency Step: 1/48 octave
* Start Frequency: 20.300 Hz
*
* Freq(Hz)	SPL(dB)	Phase(degrees)
20.299999	97.181	20.1519
20.600000	97.258	19.1427
20.900000	97.313	18.0601
21.200001	97.351	16.9380
21.400000	97.370	16.1994
21.799999	97.393	14.7437
22.000000	97.396	14.0182
22.400000	97.379	12.5410
22.700001	97.333	11.4284
23.000000	97.252	10.3908
23.299999	97.140	9.5566
23.600000	97.017	9.0364
24.000000	96.883	8.9194
24.299999	96.848	9.1805
24.700001	96.912	9.6718
25.000000	97.029	9.8569
25.400000	97.219	9.5998
25.799999	97.360	8.7866
26.200001	97.397	7.7297
26.500000	97.360	7.0241
26.900000	97.272	6.3945
27.200001	97.232	6.1157
27.600000	97.273	5.7010
28.000000	97.422	4.7831
28.500000	97.640	2.7469
29.000000	97.723	0.5673
29.500000	97.620	-0.4625
30.000000	97.464	0.2246
30.400000	97.419	1.3234
30.700001	97.439	1.8299
31.100000	97.473	1.5126
31.500000	97.439	0.1039
32.000000	97.258	-2.2656
32.500000	97.016	-3.8978
33.000000	96.902	-4.0274
33.500000	97.017	-3.2905
34.000000	97.269	-2.9805
34.500000	97.450	-3.7030
35.000000	97.426	-5.0845
35.500000	97.226	-6.2520
36.000000	97.019	-6.5775
36.500000	96.982	-6.2527
37.000000	97.128	-6.0901
37.500000	97.308	-6.5074
38.200001	97.349	-7.4855
38.700001	97.214	-8.0520
39.500000	96.917	-9.2261
40.000000	96.765	-10.2783
40.599998	96.706	-11.3466
41.200001	96.827	-11.9602
41.799999	97.003	-12.5086
42.500000	97.016	-13.1453
43.099998	96.828	-13.3636
43.700001	96.607	-13.5577
44.400002	96.452	-14.4228
45.000000	96.430	-15.6635
45.500000	96.456	-16.7287
46.200001	96.467	-17.7999
46.799999	96.430	-17.9163
47.500000	96.465	-17.5623
48.200001	96.568	-18.2093
48.700001	96.544	-19.2532
49.400002	96.341	-19.9423
50.000000	96.231	-19.4847
50.799999	96.293	-19.8321
51.500000	96.266	-21.3617
52.200001	96.174	-21.9213
53.000000	96.267	-21.7901
53.799999	96.282	-22.9489
54.500000	96.002	-23.5470
55.200001	95.780	-22.6182
56.000000	95.866	-22.1853
57.000000	95.936	-24.1232
58.000000	95.806	-25.4469
59.000000	95.732	-25.9466
60.000000	95.642	-26.0275
60.799999	95.596	-26.0686
61.500000	95.586	-26.5780
62.200001	95.562	-27.5738
63.000000	95.433	-28.6306
64.000000	95.224	-28.5439
65.000000	95.231	-28.8059
66.000000	95.170	-30.2269
67.000000	95.039	-30.5982
68.000000	94.896	-31.0245
69.000000	94.780	-31.2130
70.000000	94.801	-32.1230
71.000000	94.601	-32.5425
72.000000	94.578	-31.5551
73.000000	94.674	-32.7246
74.000000	94.487	-33.8264
75.000000	94.391	-33.5673
76.199997	94.336	-34.7269
77.500000	94.162	-34.7793
78.800003	94.095	-35.8065
80.000000	93.953	-35.0439
81.199997	93.859	-36.5408
82.500000	93.607	-36.4782
83.800003	93.600	-38.2240
85.000000	93.405	-36.1276
86.199997	93.431	-36.7574
87.500000	93.481	-36.7345
88.500000	93.467	-38.0183
90.000000	93.231	-37.8325
91.199997	93.022	-38.4798
92.500000	93.068	-38.3717
93.800003	92.956	-38.5434
95.000000	92.835	-38.6907
96.199997	92.590	-39.7117
97.500000	92.592	-38.6021
98.800003	92.456	-39.3433
100.000000	91.949	-39.3972
101.500000	92.236	-40.3342
103.000000	92.136	-40.0936
104.400002	92.202	-40.4259
106.000000	91.861	-40.3863
107.500000	91.637	-41.5289
109.000000	91.612	-41.4070
110.599998	91.568	-41.8762
112.000000	91.436	-41.1399
113.800003	91.399	-41.3109
115.000000	91.283	-40.2147
117.199997	90.995	-41.6758
118.000000	90.978	-42.2627
120.599998	90.781	-42.2143
122.000000	90.728	-40.5834
124.099998	90.383	-40.9691
125.000000	90.389	-41.0933
126.500000	90.148	-41.5995
128.000000	90.271	-41.9308
131.500000	89.994	-40.4180
132.000000	90.005	-40.5089
134.000000	89.857	-41.1889
136.000000	89.598	-40.3185
138.000000	89.681	-40.6211
140.000000	89.457	-39.5963
143.000000	88.823	-39.8843
145.000000	89.188	-41.8022
147.500000	88.612	-38.2756
150.000000	88.854	-41.3632
152.500000	88.716	-39.1933
155.000000	88.698	-38.6576
157.500000	88.244	-38.5416
160.000000	88.359	-38.2003
162.500000	88.300	-37.9810
165.000000	88.022	-35.0445
167.500000	87.854	-36.0694
170.000000	87.426	-38.3080
172.500000	87.550	-36.3424
175.000000	87.442	-35.5091
177.500000	87.379	-33.0377
180.000000	87.297	-33.8068
182.500000	87.125	-31.1916
185.000000	86.766	-30.5085
187.500000	86.772	-31.1039
190.000000	86.809	-30.4158
192.500000	86.829	-30.5870
195.000000	86.551	-28.3489
197.500000	86.637	-28.9364
200.000000	86.577	-27.1100
203.000000	86.505	-27.6412
206.000000	86.219	-26.2117
209.000000	86.459	-23.3315
212.000000	86.447	-26.1062
214.000000	86.047	-24.0945
218.000000	85.992	-23.4686
220.000000	86.165	-22.8494
224.000000	86.044	-20.0459
227.000000	85.885	-21.1660
230.000000	85.873	-19.5500
233.000000	85.784	-17.7491
236.000000	85.823	-18.5837
240.000000	85.894	-18.1946
243.000000	85.855	-17.5926
247.000000	85.743	-14.0248
250.000000	85.739	-15.2164
254.000000	85.703	-14.0601
258.000000	85.862	-12.8878
262.000000	85.920	-12.0224
265.000000	85.618	-12.9372
269.000000	85.561	-10.0664
272.000000	85.710	-9.8500
276.000000	85.817	-9.3058
280.000000	85.751	-7.7614
285.000000	85.831	-7.7715
290.000000	85.600	-6.8076
295.000000	85.834	-5.7282
300.000000	85.830	-5.1135
304.000000	85.831	-4.2626
307.000000	85.776	-3.9392
311.000000	85.760	-2.9093
315.000000	85.836	-3.8250
320.000000	85.703	-2.3383
325.000000	85.919	-2.7054
330.000000	85.938	-0.5674
335.000000	85.877	-0.3956
340.000000	85.926	-0.7523
345.000000	85.978	0.4117
350.000000	85.994	1.1598
355.000000	86.018	0.7569
360.000000	86.064	2.9136
365.000000	86.066	1.8862
370.000000	86.057	3.9619
375.000000	85.931	3.6382
382.000000	86.071	4.0156
387.000000	86.137	4.5386
395.000000	86.206	5.3495
400.000000	86.174	6.3494
406.000000	86.153	6.4127
412.000000	86.289	7.1400
418.000000	86.263	7.4934
425.000000	86.332	7.9756
431.000000	86.398	8.3378
437.000000	86.430	8.8554
444.000000	86.415	9.2108
450.000000	86.458	9.7722
455.000000	86.422	9.1123
462.000000	86.564	10.7093
468.000000	86.606	10.6707
475.000000	86.577	11.0668
482.000000	86.640	11.0720
487.000000	86.650	11.5367
494.000000	86.639	12.4490
500.000000	86.653	12.6256
508.000000	86.666	13.2858
515.000000	86.774	13.3035
522.000000	86.781	13.7826
530.000000	86.911	14.0787
538.000000	86.753	14.1111
545.000000	86.762	15.4221
552.000000	86.840	15.6880
560.000000	86.882	16.6032
570.000000	86.907	16.6215
580.000000	86.910	16.9935
590.000000	87.014	18.0396
600.000000	86.976	17.9865
608.000000	87.023	18.5273
615.000000	87.028	19.1001
622.000000	87.005	19.2126
630.000000	87.135	19.9333
640.000000	87.133	20.0298
650.000000	86.984	21.0044
660.000000	87.136	21.1010
670.000000	87.100	21.6460
680.000000	87.178	22.5391
690.000000	87.189	23.2973
700.000000	87.210	23.6415
710.000000	87.356	23.8329
720.000000	87.323	25.0791
730.000000	87.367	25.0215
740.000000	87.360	25.6160
750.000000	87.409	26.2052
762.000000	87.464	27.0241
775.000000	87.546	27.5490
788.000000	87.548	28.4114
800.000000	87.597	28.9426
812.000000	87.673	29.3185
825.000000	87.716	30.1309
838.000000	87.703	31.1872
850.000000	87.798	31.6082
862.000000	87.943	32.6078
875.000000	88.035	33.0250
885.000000	88.024	33.7611
900.000000	88.117	34.0938
912.000000	88.229	34.5809
925.000000	88.260	35.6088
938.000000	88.352	35.8610
950.000000	88.420	36.1255
962.000000	88.539	36.4806
975.000000	88.587	37.2695
988.000000	88.732	37.8627
1000.000000	88.780	38.1078
1015.000000	88.875	38.3476
1030.000000	89.058	38.5580
1044.000000	89.124	38.8182
1060.000000	89.233	39.4918
1075.000000	89.359	40.0599
1090.000000	89.473	39.8037
1106.000000	89.540	40.2347
1120.000000	89.641	40.6344
1138.000000	89.765	40.4945
1150.000000	89.817	40.4636
1172.000000	89.928	40.6134
1180.000000	89.998	40.9511
1206.000000	90.120	40.9573
1220.000000	90.196	41.2707
1241.000000	90.345	41.3333
1250.000000	90.403	41.4258
1265.000000	90.501	41.3634
1280.000000	90.594	41.5175
1315.000000	90.787	41.6637
1320.000000	90.810	41.5042
1340.000000	90.948	41.8300
1360.000000	91.095	41.9016
1380.000000	91.198	41.9012
1400.000000	91.320	42.1642
1430.000000	91.483	42.2174
1450.000000	91.574	42.3860
1475.000000	91.715	42.5387
1500.000000	91.852	42.7609
1525.000000	91.978	42.9507
1550.000000	92.082	43.2763
1575.000000	92.190	43.3932
1600.000000	92.290	43.6851
1625.000000	92.389	43.9212
1650.000000	92.499	44.1371
1675.000000	92.598	44.3756
1700.000000	92.708	44.5727
1725.000000	92.820	44.8444
1750.000000	92.938	45.1331
1775.000000	93.055	45.3514
1800.000000	93.172	45.5044
1825.000000	93.289	45.7605
1850.000000	93.411	45.9876
1875.000000	93.536	46.1224
1900.000000	93.667	46.3081
1925.000000	93.789	46.4864
1950.000000	93.917	46.6047
1975.000000	94.043	46.7377
2000.000000	94.180	46.8325
2030.000000	94.341	46.9693
2060.000000	94.505	47.0264
2090.000000	94.671	47.0359
2120.000000	94.836	47.0571
2140.000000	94.953	47.0286
2180.000000	95.178	46.9136
2200.000000	95.294	46.8505
2240.000000	95.527	46.6050
2270.000000	95.698	46.3801
2300.000000	95.872	46.1065
2330.000000	96.053	45.7604
2360.000000	96.224	45.3613
2400.000000	96.458	44.7403
2430.000000	96.627	44.2238
2470.000000	96.847	43.4298
2500.000000	97.014	42.7723
2540.000000	97.225	41.7607
2580.000000	97.421	40.7040
2620.000000	97.608	39.5146
2650.000000	97.744	38.5675
2690.000000	97.909	37.2227
2720.000000	98.017	36.1619
2760.000000	98.150	34.6905
2800.000000	98.268	33.1540
2850.000000	98.384	31.1761
2900.000000	98.464	29.1635
2950.000000	98.517	27.0997
3000.000000	98.536	25.0828
3040.000000	98.526	23.4574
3070.000000	98.510	22.2376
3110.000000	98.466	20.7100
3150.000000	98.412	19.1938
3200.000000	98.315	17.3380
3250.000000	98.193	15.6188
3300.000000	98.048	13.9901
3350.000000	97.883	12.4299
3400.000000	97.701	11.0740
3450.000000	97.504	9.8818
3500.000000	97.298	8.8686
3550.000000	97.093	8.0199
3600.000000	96.891	7.3806
3650.000000	96.693	6.8672
3700.000000	96.505	6.5037
3750.000000	96.332	6.1861
3820.000000	96.111	5.9370
3870.000000	95.962	5.7911
3950.000000	95.748	5.6017
4000.000000	95.624	5.5026
4060.000000	95.482	5.3689
4120.000000	95.341	5.2545
4180.000000	95.195	5.1861
4250.000000	95.026	5.1640
4310.000000	94.889	5.2633
4370.000000	94.754	5.4546
4440.000000	94.626	5.7344
4500.000000	94.536	6.0067
4550.000000	94.465	6.2089
4620.000000	94.390	6.4558
4680.000000	94.320	6.6801
4750.000000	94.257	6.7854
4820.000000	94.195	6.9152
4870.000000	94.148	6.9454
4940.000000	94.082	6.9670
5000.000000	94.020	6.8823
5080.000000	93.930	6.8066
5150.000000	93.851	6.7504
5220.000000	93.759	6.6419
5300.000000	93.649	6.5226
5380.000000	93.521	6.4387
5450.000000	93.404	6.3545
5520.000000	93.264	6.4091
5600.000000	93.111	6.4540
5700.000000	92.897	6.6527
5800.000000	92.671	7.0493
5900.000000	92.467	7.5594
6000.000000	92.252	8.2862
6080.000000	92.088	8.9378
6150.000000	91.954	9.6089
6220.000000	91.830	10.4026
6300.000000	91.700	11.2865
6400.000000	91.553	12.6019
6500.000000	91.439	14.0415
6600.000000	91.358	15.4545
6700.000000	91.306	16.9997
6800.000000	91.315	18.5155
6900.000000	91.364	19.8829
7000.000000	91.510	21.1334
7100.000000	91.685	22.3043
7200.000000	91.906	23.1966
7300.000000	92.160	23.6146
7400.000000	92.422	23.7444
7500.000000	92.702	23.4260
7620.000000	93.016	22.4569
7750.000000	93.452	20.1942
7880.000000	93.555	16.9458
8000.000000	93.506	13.3503
8120.000000	93.286	9.5139
8250.000000	92.840	5.4031
8380.000000	92.194	2.0473
8500.000000	91.484	-0.0931
8620.000000	90.748	-0.8682
8750.000000	90.022	-0.7456
8850.000000	89.547	-0.7222
9000.000000	88.757	-0.2470
9120.000000	88.264	1.0427
9250.000000	87.940	1.6589
9380.000000	87.500	1.0661
9500.000000	86.962	1.0934
9620.000000	86.464	1.7469
9750.000000	86.015	2.9305
9880.000000	85.681	4.1018
10000.000000	85.439	5.4808
10150.000000	85.265	6.7246
10300.000000	85.158	7.6179
10440.000000	85.156	7.9438
10600.000000	85.265	7.7270
10750.000000	85.398	6.6800
10900.000000	85.471	4.4124
11060.000000	85.661	1.5460
11200.000000	85.667	-1.6973
11380.000000	85.503	-6.5365
11500.000000	85.260	-9.3257
11720.000000	84.640	-13.1746
11800.000000	84.415	-14.0222
12060.000000	83.872	-15.2405
12200.000000	83.667	-15.6567
12410.000000	83.594	-16.5509
12500.000000	83.525	-17.2906
12650.000000	83.476	-18.5379
12800.000000	83.422	-20.1916
13150.000000	83.125	-24.2025
13200.000000	83.075	-24.9265
13400.000000	82.817	-26.8606
13600.000000	82.541	-28.9336
13800.000000	82.353	-30.7468
14000.000000	82.215	-33.1020
14300.000000	82.003	-37.8661
14500.000000	81.797	-41.2236
14750.000000	81.599	-46.1983
15000.000000	81.369	-52.0753
15250.000000	81.091	-60.0424
15500.000000	80.719	-70.0415
15750.000000	80.206	-81.6378
16000.000000	79.529	-95.5809
16250.000000	78.529	-111.0585
16500.000000	77.562	-127.2347
16750.000000	76.641	-145.2650
17000.000000	75.820	-163.5193
17250.000000	75.370	176.2087
17500.000000	75.203	154.6031
17750.000000	75.448	132.0561
18000.000000	75.784	107.6492
18250.000000	76.436	82.1129
18500.000000	77.149	53.8959
18750.000000	77.789	22.3239
19000.000000	77.949	-12.8107
19250.000000	77.371	-50.9178
19500.000000	76.292	-90.4871
19750.000000	74.554	-130.5732
