* Measurement data measured by REW V5.20.4
* Source: Headset (2- USB-C to 3.5mm Headphone Jack Adapter), MICROPHONE (Master Volume), R, volume: 0.630
* Format: 256k Log Swept Sine, 1 sweep at -6.0 dBFS with no timing reference
* Dated: 10 Sep, 2022 2:58:30 PM
* REW Settings:
*  C-weighting compensation: Off
*  Target level: 75.0 dB
* Note: 
* Measurement: Vari L
* Smoothing: None
* Frequency Step: 1/48 octave
* Start Frequency: 20.300 Hz
*
* Freq(Hz)	SPL(dB)	Phase(degrees)
20.299999	100.059	-167.5468
20.600000	99.991	-168.4163
20.900000	99.906	-169.0886
21.200001	99.846	-169.6270
21.400000	99.835	-169.9719
21.799999	99.881	-170.7676
22.000000	99.929	-171.2650
22.400000	100.037	-172.4497
22.700001	100.100	-173.3579
23.000000	100.135	-174.1052
23.299999	100.148	-174.6102
23.600000	100.154	-174.9180
24.000000	100.165	-175.2386
24.299999	100.170	-175.6265
24.700001	100.150	-176.4843
25.000000	100.104	-177.3164
25.400000	100.009	-178.4390
25.799999	99.922	-179.3163
26.200001	99.892	-179.9054
26.500000	99.913	179.7372
26.900000	99.969	179.2418
27.200001	100.000	178.8478
27.600000	99.998	178.3915
28.000000	99.945	178.1362
28.500000	99.853	178.0310
29.000000	99.783	177.7485
29.500000	99.741	176.9750
30.000000	99.708	175.8398
30.400000	99.687	174.9169
30.700001	99.674	174.3020
31.100000	99.659	173.6085
31.500000	99.637	173.0399
32.000000	99.592	172.4702
32.500000	99.545	171.9991
33.000000	99.527	171.4861
33.500000	99.542	170.8085
34.000000	99.571	170.0236
34.500000	99.591	169.3468
35.000000	99.589	168.9104
35.500000	99.566	168.6302
36.000000	99.522	168.2942
36.500000	99.456	167.7568
37.000000	99.374	167.0320
37.500000	99.293	166.2725
38.200001	99.227	165.4635
38.700001	99.238	165.0308
39.500000	99.281	163.9390
40.000000	99.217	163.0443
40.599998	99.014	162.5018
41.200001	98.837	162.9829
41.799999	98.848	163.4006
42.500000	98.957	162.1932
43.099998	98.907	160.6608
43.700001	98.798	160.4309
44.400002	98.836	161.1836
45.000000	98.870	160.7648
45.500000	98.693	159.9065
46.200001	98.304	159.9653
46.799999	98.337	160.8459
47.500000	98.797	159.5128
48.200001	99.018	156.6342
48.700001	98.904	155.7887
49.400002	98.672	156.6999
50.000000	98.548	157.0364
50.799999	98.298	155.7036
51.500000	98.137	154.9866
52.200001	98.230	154.7698
53.000000	98.314	154.1417
53.799999	98.170	154.0638
54.500000	98.064	154.1663
55.200001	98.023	153.6586
56.000000	97.978	152.9269
57.000000	97.888	152.5055
58.000000	97.793	152.3520
59.000000	97.732	151.6959
60.000000	97.587	151.0250
60.799999	97.499	150.4957
61.500000	97.427	149.9138
62.200001	97.396	149.8983
63.000000	97.484	149.9639
64.000000	97.432	148.9637
65.000000	97.228	148.8328
66.000000	97.213	148.3379
67.000000	97.026	147.8607
68.000000	96.907	148.5898
69.000000	96.910	147.9514
70.000000	96.830	146.9005
71.000000	96.677	146.6268
72.000000	96.623	147.1820
73.000000	96.609	145.9576
74.000000	96.348	145.4667
75.000000	96.532	146.4946
76.199997	96.624	145.6111
77.500000	96.400	145.7297
78.800003	95.824	143.8238
80.000000	95.983	145.0101
81.199997	96.030	143.6868
82.500000	95.898	144.7427
83.800003	95.760	144.0361
85.000000	95.526	143.6357
86.199997	95.284	143.4838
87.500000	95.492	143.2811
88.500000	95.451	143.2722
90.000000	95.271	143.4886
91.199997	95.073	143.5905
92.500000	95.066	142.4721
93.800003	95.055	142.2958
95.000000	95.014	142.0790
96.199997	94.834	141.1624
97.500000	94.864	140.8674
98.800003	94.303	140.7828
100.000000	93.817	146.6669
101.500000	94.516	141.9072
103.000000	94.343	141.1330
104.400002	94.219	141.9113
106.000000	94.313	140.9989
107.500000	94.135	141.2729
109.000000	93.942	141.0612
110.599998	93.897	141.1549
112.000000	93.840	141.1619
113.800003	93.649	141.6713
115.000000	93.507	140.9438
117.199997	93.555	140.6873
118.000000	93.460	141.3921
120.599998	93.259	141.0469
122.000000	93.139	141.0014
124.099998	93.108	142.3434
125.000000	93.018	141.8030
126.500000	92.708	138.7406
128.000000	92.771	140.0891
131.500000	92.466	142.2562
132.000000	92.461	142.4405
134.000000	92.393	141.6941
136.000000	92.342	142.2054
138.000000	92.382	141.6165
140.000000	92.324	141.9687
143.000000	92.052	143.0718
145.000000	91.953	142.4989
147.500000	91.939	142.6656
150.000000	91.808	143.3289
152.500000	91.647	143.5938
155.000000	91.549	143.8907
157.500000	91.374	144.0146
160.000000	91.279	144.2992
162.500000	91.152	144.8421
165.000000	91.084	144.7932
167.500000	90.979	145.2122
170.000000	90.898	145.4873
172.500000	90.832	146.8400
175.000000	90.752	146.6914
177.500000	90.541	146.9448
180.000000	90.534	147.1110
182.500000	90.432	147.4275
185.000000	90.449	147.1785
187.500000	90.361	148.5710
190.000000	90.159	148.8235
192.500000	90.233	149.3446
195.000000	90.133	149.2501
197.500000	90.048	149.9098
200.000000	90.052	150.2470
203.000000	89.921	150.5140
206.000000	89.771	151.2245
209.000000	89.795	151.6680
212.000000	89.771	151.6642
214.000000	89.716	152.9123
218.000000	89.706	152.6180
220.000000	89.553	153.2579
224.000000	89.540	154.2527
227.000000	89.432	154.9282
230.000000	89.471	155.4318
233.000000	89.324	155.1647
236.000000	89.319	156.4919
240.000000	89.156	157.3528
243.000000	89.274	156.6962
247.000000	89.063	157.5486
250.000000	89.111	157.8260
254.000000	89.178	159.2668
258.000000	89.139	157.3770
262.000000	89.111	160.4273
265.000000	88.976	160.1451
269.000000	89.015	161.3240
272.000000	88.926	161.5020
276.000000	88.925	162.7763
280.000000	88.849	162.6945
285.000000	88.832	163.7611
290.000000	88.825	164.1549
295.000000	88.783	164.5689
300.000000	88.622	166.1196
304.000000	88.770	165.6409
307.000000	88.728	166.0237
311.000000	88.736	167.0200
315.000000	88.735	167.0856
320.000000	88.743	167.6001
325.000000	88.683	167.6370
330.000000	88.735	168.8958
335.000000	88.649	169.1342
340.000000	88.682	169.5291
345.000000	88.673	170.3508
350.000000	88.707	170.8470
355.000000	88.666	172.0553
360.000000	88.595	172.0805
365.000000	88.724	172.4904
370.000000	88.607	172.4717
375.000000	88.716	173.6010
382.000000	88.677	173.8964
387.000000	88.709	174.6926
395.000000	88.701	175.1340
400.000000	88.752	175.0767
406.000000	88.820	175.9290
412.000000	88.841	176.5400
418.000000	88.783	177.4460
425.000000	88.722	178.5185
431.000000	88.897	178.3228
437.000000	88.760	178.4568
444.000000	88.714	178.9792
450.000000	88.757	179.5183
455.000000	88.847	-179.7586
462.000000	88.859	-179.6071
468.000000	88.842	-179.0012
475.000000	88.844	-178.6166
482.000000	88.832	-178.1681
487.000000	88.818	-177.7555
494.000000	88.871	-177.5207
500.000000	88.931	-176.5900
508.000000	88.935	-176.5225
515.000000	88.962	-175.9709
522.000000	88.960	-175.7580
530.000000	88.977	-175.0940
538.000000	89.055	-174.9149
545.000000	89.027	-174.5001
552.000000	89.035	-173.8708
560.000000	89.058	-173.7906
570.000000	89.112	-172.7576
580.000000	89.118	-172.2596
590.000000	89.144	-171.8499
600.000000	89.167	-171.3987
608.000000	89.218	-170.9384
615.000000	89.174	-170.5695
622.000000	89.246	-170.6990
630.000000	89.220	-169.8397
640.000000	89.240	-169.9210
650.000000	89.416	-168.4420
660.000000	89.394	-168.1706
670.000000	89.370	-167.8530
680.000000	89.395	-167.4218
690.000000	89.393	-166.4106
700.000000	89.427	-165.9957
710.000000	89.477	-165.5896
720.000000	89.524	-164.8455
730.000000	89.611	-164.7075
740.000000	89.653	-163.8234
750.000000	89.628	-164.0013
762.000000	89.690	-162.9990
775.000000	89.731	-162.2312
788.000000	89.776	-161.3032
800.000000	89.826	-161.1028
812.000000	89.995	-160.1223
825.000000	89.925	-158.9607
838.000000	90.000	-158.8245
850.000000	90.061	-158.1913
862.000000	90.162	-158.1710
875.000000	90.199	-157.6212
885.000000	90.274	-156.7771
900.000000	90.422	-156.3299
912.000000	90.442	-155.6022
925.000000	90.543	-155.3111
938.000000	90.622	-155.1331
950.000000	90.741	-154.7156
962.000000	90.800	-154.2138
975.000000	90.869	-153.9193
988.000000	91.002	-153.4852
1000.000000	91.075	-153.3570
1015.000000	91.174	-152.8587
1030.000000	91.340	-151.7900
1044.000000	91.420	-152.2440
1060.000000	91.597	-151.8569
1075.000000	91.664	-151.3786
1090.000000	91.786	-151.9428
1106.000000	91.863	-151.5140
1120.000000	91.961	-151.4844
1138.000000	92.044	-151.4703
1150.000000	92.137	-151.4462
1172.000000	92.263	-151.2257
1180.000000	92.311	-151.1421
1206.000000	92.459	-151.2981
1220.000000	92.533	-151.0465
1241.000000	92.673	-151.0565
1250.000000	92.736	-151.2570
1265.000000	92.814	-151.1142
1280.000000	92.939	-151.2247
1315.000000	93.133	-151.1078
1320.000000	93.170	-151.1648
1340.000000	93.279	-151.1301
1360.000000	93.458	-151.2588
1380.000000	93.556	-151.1665
1400.000000	93.685	-151.1824
1430.000000	93.862	-151.2067
1450.000000	93.969	-151.0688
1475.000000	94.107	-151.0040
1500.000000	94.247	-150.9239
1525.000000	94.381	-150.9379
1550.000000	94.504	-150.8641
1575.000000	94.603	-150.6479
1600.000000	94.715	-150.7064
1625.000000	94.834	-150.5867
1650.000000	94.940	-150.5201
1675.000000	95.055	-150.3343
1700.000000	95.179	-150.3184
1725.000000	95.288	-150.2179
1750.000000	95.412	-150.1451
1775.000000	95.526	-150.0810
1800.000000	95.657	-150.0250
1825.000000	95.781	-149.9436
1850.000000	95.911	-149.8947
1875.000000	96.039	-149.8802
1900.000000	96.171	-149.8676
1925.000000	96.308	-149.8726
1950.000000	96.440	-149.8925
1975.000000	96.575	-149.9678
2000.000000	96.707	-149.9995
2030.000000	96.878	-150.1346
2060.000000	97.041	-150.2899
2090.000000	97.213	-150.4594
2120.000000	97.385	-150.6940
2140.000000	97.501	-150.8746
2180.000000	97.729	-151.3122
2200.000000	97.847	-151.5147
2240.000000	98.076	-152.0804
2270.000000	98.245	-152.5560
2300.000000	98.418	-153.0878
2330.000000	98.585	-153.6761
2360.000000	98.755	-154.3084
2400.000000	98.972	-155.2659
2430.000000	99.130	-156.0352
2470.000000	99.332	-157.1596
2500.000000	99.480	-158.0788
2540.000000	99.661	-159.3873
2580.000000	99.832	-160.7928
2620.000000	99.983	-162.2617
2650.000000	100.086	-163.4055
2690.000000	100.204	-165.0052
2720.000000	100.277	-166.2169
2760.000000	100.361	-167.8750
2800.000000	100.421	-169.5688
2850.000000	100.466	-171.6655
2900.000000	100.475	-173.7259
2950.000000	100.453	-175.7428
3000.000000	100.397	-177.6207
3040.000000	100.339	-179.0657
3070.000000	100.284	179.9029
3110.000000	100.200	178.6527
3150.000000	100.106	177.4791
3200.000000	99.979	176.1436
3250.000000	99.842	174.9826
3300.000000	99.709	173.9044
3350.000000	99.578	172.9394
3400.000000	99.449	172.0503
3450.000000	99.324	171.2048
3500.000000	99.202	170.3594
3550.000000	99.075	169.5776
3600.000000	98.930	168.7991
3650.000000	98.781	168.1278
3700.000000	98.625	167.5356
3750.000000	98.464	167.0255
3820.000000	98.236	166.5270
3870.000000	98.080	166.2536
3950.000000	97.827	166.0199
4000.000000	97.673	165.9483
4060.000000	97.486	165.9866
4120.000000	97.311	166.1522
4180.000000	97.147	166.4614
4250.000000	96.981	166.9276
4310.000000	96.855	167.4008
4370.000000	96.760	167.8934
4440.000000	96.666	168.4166
4500.000000	96.598	168.8319
4550.000000	96.549	169.1657
4620.000000	96.491	169.5716
4680.000000	96.451	169.8890
4750.000000	96.403	170.1610
4820.000000	96.364	170.3914
4870.000000	96.328	170.5012
4940.000000	96.277	170.6440
5000.000000	96.231	170.6954
5080.000000	96.165	170.6784
5150.000000	96.097	170.6324
5220.000000	96.022	170.5802
5300.000000	95.923	170.4706
5380.000000	95.810	170.4025
5450.000000	95.709	170.3095
5520.000000	95.574	170.2388
5600.000000	95.409	170.2308
5700.000000	95.191	170.3565
5800.000000	94.963	170.6115
5900.000000	94.726	171.0153
6000.000000	94.491	171.6152
6080.000000	94.299	172.2113
6150.000000	94.147	172.8375
6220.000000	93.999	173.5931
6300.000000	93.839	174.4753
6400.000000	93.667	175.7033
6500.000000	93.516	177.0149
6600.000000	93.410	178.4339
6700.000000	93.325	179.8428
6800.000000	93.266	-178.7321
6900.000000	93.303	-177.3908
7000.000000	93.407	-176.1333
7100.000000	93.557	-175.0970
7200.000000	93.750	-174.3340
7300.000000	93.966	-174.1169
7400.000000	94.126	-174.0757
7500.000000	94.373	-174.3801
7620.000000	94.638	-175.1550
7750.000000	95.005	-177.3083
7880.000000	95.061	179.6048
8000.000000	94.939	176.1201
8120.000000	94.643	172.4271
8250.000000	94.104	168.8492
8380.000000	93.386	166.2175
8500.000000	92.652	164.8834
8620.000000	91.931	164.6616
8750.000000	91.216	165.0380
8850.000000	90.702	165.1082
9000.000000	89.849	165.5012
9120.000000	89.128	166.5294
9250.000000	88.360	168.3944
9380.000000	87.683	170.8795
9500.000000	87.107	173.4665
9620.000000	86.600	176.2101
9750.000000	86.146	179.4234
9880.000000	85.753	-177.3087
10000.000000	85.454	-174.4527
10150.000000	85.189	-170.9411
10300.000000	84.950	-167.5444
10440.000000	84.811	-164.8630
10600.000000	84.715	-162.0370
10750.000000	84.717	-159.9161
10900.000000	84.588	-158.5069
11060.000000	84.562	-157.6197
11200.000000	84.469	-157.2357
11380.000000	84.275	-157.3853
11500.000000	84.056	-157.1302
11720.000000	83.568	-156.1163
11800.000000	83.386	-155.3429
12060.000000	83.150	-152.0602
12200.000000	83.220	-150.8271
12410.000000	83.408	-151.8259
12500.000000	83.365	-152.7738
12650.000000	83.283	-154.8743
12800.000000	83.009	-156.6724
13150.000000	82.142	-159.1030
13200.000000	82.002	-159.1718
13400.000000	81.497	-159.4403
13600.000000	81.008	-158.8868
13800.000000	80.655	-158.0483
14000.000000	80.383	-157.3056
14300.000000	80.239	-156.2605
14500.000000	80.219	-155.5172
14750.000000	80.350	-155.7536
15000.000000	80.628	-157.0326
15250.000000	81.089	-159.4400
15500.000000	81.652	-164.4026
15750.000000	82.188	-171.4187
16000.000000	82.647	178.2343
16250.000000	82.738	165.5714
16500.000000	82.389	150.9945
16750.000000	81.619	137.2111
17000.000000	80.609	123.9540
17250.000000	79.486	111.6958
17500.000000	78.425	100.4927
17750.000000	77.228	89.4417
18000.000000	76.244	77.4278
18250.000000	74.544	65.1377
18500.000000	74.508	50.6172
18750.000000	73.679	35.7435
19000.000000	73.022	17.3425
19250.000000	72.445	-3.7817
19500.000000	71.785	-28.7276
19750.000000	70.502	-58.4608
