* Measurement data measured by REW V5.20.4
* Source: Headset (2- USB-C to 3.5mm Headphone Jack Adapter), MICROPHONE (Master Volume), R, volume: 0.630
* Format: 256k Log Swept Sine, 1 sweep at -6.0 dBFS with no timing reference
* Dated: 10 Sep, 2022 2:55:14 PM
* REW Settings:
*  C-weighting compensation: Off
*  Target level: 75.0 dB
* Note: 
* Measurement: Vari R
* Smoothing: None
* Frequency Step: 1/48 octave
* Start Frequency: 20.300 Hz
*
* Freq(Hz)	SPL(dB)	Phase(degrees)
20.299999	100.205	-169.3360
20.600000	100.247	-169.7944
20.900000	100.274	-170.4588
21.200001	100.275	-171.2773
21.400000	100.263	-171.8387
21.799999	100.229	-172.8950
22.000000	100.215	-173.3576
22.400000	100.219	-174.1673
22.700001	100.252	-174.7624
23.000000	100.301	-175.4325
23.299999	100.346	-176.1854
23.600000	100.372	-176.9687
24.000000	100.369	-177.9374
24.299999	100.345	-178.5346
24.700001	100.307	-179.1767
25.000000	100.284	-179.6308
25.400000	100.258	179.6851
25.799999	100.218	178.9290
26.200001	100.155	178.3024
26.500000	100.105	178.0473
26.900000	100.061	178.0083
27.200001	100.059	178.0651
27.600000	100.097	177.9654
28.000000	100.137	177.4169
28.500000	100.116	176.1575
29.000000	99.997	174.7794
29.500000	99.850	173.7541
30.000000	99.767	173.1143
30.400000	99.771	172.6775
30.700001	99.799	172.3132
31.100000	99.838	171.7969
31.500000	99.859	171.3478
32.000000	99.853	171.0212
32.500000	99.842	170.8625
33.000000	99.840	170.4857
33.500000	99.812	169.6219
34.000000	99.722	168.4955
34.500000	99.597	167.6833
35.000000	99.518	167.4390
35.500000	99.546	167.3251
36.000000	99.619	166.7938
36.500000	99.637	165.9622
37.000000	99.592	165.3713
37.500000	99.565	165.0865
38.200001	99.559	164.2340
38.700001	99.453	163.3420
39.500000	99.169	163.5767
40.000000	99.163	164.3211
40.599998	99.291	163.7824
41.200001	99.254	162.0025
41.799999	99.091	161.1898
42.500000	99.148	161.2916
43.099998	99.282	159.8235
43.700001	99.101	157.8585
44.400002	98.699	158.1500
45.000000	98.714	159.6518
45.500000	98.913	159.4810
46.200001	99.010	157.8212
46.799999	98.899	157.4541
47.500000	98.819	158.0726
48.200001	98.708	158.0888
48.700001	98.566	157.9507
49.400002	98.466	157.6106
50.000000	98.498	156.3530
50.799999	98.481	154.3165
51.500000	98.470	153.8728
52.200001	98.525	153.6631
53.000000	98.394	152.9223
53.799999	98.151	153.0289
54.500000	98.140	152.9390
55.200001	98.175	151.7373
56.000000	98.030	150.8084
57.000000	97.815	151.6766
58.000000	97.762	151.4698
59.000000	97.707	149.8217
60.000000	97.693	149.6475
60.799999	97.761	150.0530
61.500000	97.693	149.6953
62.200001	97.448	149.3831
63.000000	97.267	149.6447
64.000000	97.298	148.8134
65.000000	97.224	148.3142
66.000000	97.271	148.2118
67.000000	97.112	147.1723
68.000000	96.988	147.4002
69.000000	96.943	146.3112
70.000000	96.797	146.3518
71.000000	96.861	146.3073
72.000000	96.706	145.9670
73.000000	96.613	146.3828
74.000000	96.562	146.0048
75.000000	96.578	145.8465
76.199997	96.523	144.7761
77.500000	96.256	144.8957
78.800003	96.201	145.0904
80.000000	96.223	143.1477
81.199997	96.155	142.3362
82.500000	96.130	142.2565
83.800003	95.618	143.8313
85.000000	95.767	141.7202
86.199997	95.417	139.2965
87.500000	95.735	142.6312
88.500000	95.681	141.2325
90.000000	95.496	142.0865
91.199997	95.334	140.5948
92.500000	95.250	141.7956
93.800003	95.203	140.7024
95.000000	95.123	141.7564
96.199997	94.947	141.3626
97.500000	94.996	140.9937
98.800003	94.919	142.0315
100.000000	95.157	144.1358
101.500000	94.595	142.3762
103.000000	94.536	140.6479
104.400002	94.297	140.2573
106.000000	93.950	141.2186
107.500000	94.089	142.3296
109.000000	94.166	141.3117
110.599998	93.982	141.5313
112.000000	93.983	141.1307
113.800003	93.927	139.9965
115.000000	93.633	140.5551
117.199997	93.712	140.7227
118.000000	93.777	140.9506
120.599998	93.472	141.6895
122.000000	93.480	140.5428
124.099998	92.950	139.9513
125.000000	93.125	141.3734
126.500000	93.257	138.5846
128.000000	93.283	139.3286
131.500000	93.143	138.2917
132.000000	92.979	138.7620
134.000000	92.879	139.9424
136.000000	92.724	140.3722
138.000000	92.613	141.3814
140.000000	92.432	141.4340
143.000000	92.418	141.4401
145.000000	92.182	141.9687
147.500000	92.066	141.6758
150.000000	91.976	141.9938
152.500000	91.894	142.1489
155.000000	91.817	142.3418
157.500000	91.732	142.5685
160.000000	91.550	143.5736
162.500000	91.398	143.0207
165.000000	91.395	143.7020
167.500000	91.245	143.2497
170.000000	91.153	144.3294
172.500000	91.257	142.6889
175.000000	91.006	145.2586
177.500000	90.916	144.3431
180.000000	90.764	145.2307
182.500000	90.692	145.8171
185.000000	90.650	145.5773
187.500000	90.596	146.5222
190.000000	90.508	146.8712
192.500000	90.411	147.2069
195.000000	90.267	147.0583
197.500000	90.252	147.6638
200.000000	90.184	147.1241
203.000000	90.093	148.7332
206.000000	90.009	148.9954
209.000000	89.955	148.7431
212.000000	89.857	149.7071
214.000000	89.939	149.7982
218.000000	89.828	150.7017
220.000000	89.636	151.1499
224.000000	89.568	151.6978
227.000000	89.549	151.8366
230.000000	89.659	152.6451
233.000000	89.411	153.6882
236.000000	89.410	153.9265
240.000000	89.292	153.6190
243.000000	89.176	154.8002
247.000000	89.219	154.9864
250.000000	89.305	155.1047
254.000000	89.287	155.3118
258.000000	89.262	159.0750
262.000000	89.101	156.9463
265.000000	88.758	158.3794
269.000000	88.944	157.9699
272.000000	88.970	160.3932
276.000000	89.037	159.3325
280.000000	88.900	160.1828
285.000000	88.872	160.7860
290.000000	88.758	161.6520
295.000000	88.659	161.8754
300.000000	88.650	160.2539
304.000000	88.719	162.9979
307.000000	88.695	163.5394
311.000000	88.540	164.0545
315.000000	88.662	164.5617
320.000000	88.661	164.5569
325.000000	88.445	165.3326
330.000000	88.514	165.8773
335.000000	88.490	166.3486
340.000000	88.487	167.0358
345.000000	88.024	169.5705
350.000000	88.536	168.7824
355.000000	88.550	168.4115
360.000000	88.554	169.9183
365.000000	88.479	170.4642
370.000000	88.383	170.7181
375.000000	88.275	171.1239
382.000000	88.528	171.2805
387.000000	88.497	173.0068
395.000000	88.356	172.1206
400.000000	88.291	170.9483
406.000000	88.473	173.2151
412.000000	88.346	174.0580
418.000000	88.441	175.1509
425.000000	88.349	175.5864
431.000000	88.476	176.5975
437.000000	88.458	176.0033
444.000000	88.379	178.0739
450.000000	88.440	177.4789
455.000000	88.441	178.6437
462.000000	88.454	179.0176
468.000000	88.349	178.5669
475.000000	88.448	-179.9653
482.000000	88.461	179.9581
487.000000	88.434	-179.0195
494.000000	88.515	-178.1980
500.000000	88.523	-178.5538
508.000000	88.447	-178.2213
515.000000	88.460	-178.2763
522.000000	88.708	-177.0043
530.000000	88.557	-176.8439
538.000000	88.749	-176.1705
545.000000	88.654	-175.6944
552.000000	88.636	-174.8880
560.000000	88.723	-174.6737
570.000000	88.693	-173.7405
580.000000	88.686	-172.7433
590.000000	88.726	-172.3143
600.000000	88.799	-172.7100
608.000000	88.797	-171.5143
615.000000	88.966	-170.7630
622.000000	88.793	-170.6369
630.000000	88.821	-170.1938
640.000000	89.001	-169.3800
650.000000	88.648	-168.6262
660.000000	89.234	-167.2903
670.000000	89.091	-166.9261
680.000000	89.049	-166.5778
690.000000	88.979	-167.2756
700.000000	89.192	-166.4671
710.000000	89.110	-165.7874
720.000000	89.197	-164.8669
730.000000	89.160	-163.8009
740.000000	89.276	-163.7565
750.000000	89.181	-163.0927
762.000000	89.294	-163.2202
775.000000	89.370	-162.2573
788.000000	89.395	-161.1018
800.000000	89.521	-160.2781
812.000000	89.492	-159.6481
825.000000	89.686	-159.2591
838.000000	89.653	-158.4303
850.000000	89.662	-157.7125
862.000000	89.820	-157.3363
875.000000	89.863	-156.9053
885.000000	89.864	-156.3453
900.000000	90.047	-155.1864
912.000000	90.140	-154.5860
925.000000	90.205	-154.1210
938.000000	90.360	-153.9836
950.000000	90.432	-153.4272
962.000000	90.407	-152.6353
975.000000	90.609	-152.6669
988.000000	90.671	-151.9669
1000.000000	90.765	-151.5047
1015.000000	90.886	-151.6034
1030.000000	91.027	-151.0902
1044.000000	91.128	-150.6306
1060.000000	91.267	-150.4461
1075.000000	91.369	-150.0249
1090.000000	91.525	-149.9042
1106.000000	91.667	-149.8243
1120.000000	91.674	-149.4750
1138.000000	91.755	-149.5535
1150.000000	91.857	-149.1487
1172.000000	91.986	-149.3587
1180.000000	92.070	-149.1943
1206.000000	92.147	-149.4994
1220.000000	92.277	-149.0849
1241.000000	92.432	-148.9946
1250.000000	92.496	-149.0483
1265.000000	92.611	-149.0723
1280.000000	92.672	-148.9309
1315.000000	92.939	-148.9372
1320.000000	92.956	-148.8054
1340.000000	93.070	-148.8556
1360.000000	93.239	-148.8651
1380.000000	93.350	-148.7492
1400.000000	93.443	-148.6459
1430.000000	93.667	-148.9718
1450.000000	93.805	-148.5584
1475.000000	93.946	-148.4682
1500.000000	94.059	-148.4164
1525.000000	94.209	-148.2795
1550.000000	94.325	-148.1930
1575.000000	94.443	-148.0154
1600.000000	94.571	-147.9161
1625.000000	94.673	-147.8467
1650.000000	94.791	-147.6691
1675.000000	94.907	-147.4303
1700.000000	95.030	-147.3001
1725.000000	95.153	-147.1932
1750.000000	95.274	-147.0129
1775.000000	95.401	-147.0241
1800.000000	95.536	-146.8093
1825.000000	95.669	-146.7193
1850.000000	95.803	-146.6331
1875.000000	95.940	-146.5176
1900.000000	96.078	-146.4875
1925.000000	96.222	-146.4561
1950.000000	96.355	-146.4372
1975.000000	96.506	-146.3688
2000.000000	96.650	-146.4076
2030.000000	96.827	-146.3930
2060.000000	97.001	-146.4895
2090.000000	97.187	-146.6003
2120.000000	97.364	-146.7844
2140.000000	97.490	-146.8672
2180.000000	97.733	-147.1667
2200.000000	97.865	-147.3617
2240.000000	98.107	-147.7704
2270.000000	98.300	-148.1593
2300.000000	98.489	-148.5949
2330.000000	98.663	-149.0529
2360.000000	98.847	-149.6745
2400.000000	99.104	-150.4842
2430.000000	99.289	-151.1644
2470.000000	99.509	-152.2851
2500.000000	99.666	-152.9940
2540.000000	99.885	-154.2228
2580.000000	100.115	-155.6816
2620.000000	100.300	-156.9985
2650.000000	100.421	-158.0703
2690.000000	100.587	-159.6929
2720.000000	100.693	-160.8812
2760.000000	100.815	-162.5877
2800.000000	100.923	-164.2743
2850.000000	101.035	-166.5220
2900.000000	101.087	-168.6239
2950.000000	101.115	-170.8505
3000.000000	101.121	-173.0013
3040.000000	101.089	-174.6269
3070.000000	101.059	-175.8142
3110.000000	101.003	-177.3877
3150.000000	100.934	-178.8606
3200.000000	100.831	179.4020
3250.000000	100.713	177.7409
3300.000000	100.580	176.1966
3350.000000	100.435	174.7141
3400.000000	100.274	173.3123
3450.000000	100.102	172.0540
3500.000000	99.912	170.9102
3550.000000	99.715	169.9692
3600.000000	99.510	169.2302
3650.000000	99.314	168.6154
3700.000000	99.122	168.2002
3750.000000	98.938	167.8895
3820.000000	98.712	167.6056
3870.000000	98.559	167.5051
3950.000000	98.317	167.3613
4000.000000	98.186	167.3484
4060.000000	98.026	167.3532
4120.000000	97.859	167.4679
4180.000000	97.706	167.6705
4250.000000	97.539	168.0143
4310.000000	97.428	168.4159
4370.000000	97.334	168.7937
4440.000000	97.244	169.2422
4500.000000	97.183	169.6497
4550.000000	97.135	169.8759
4620.000000	97.088	170.1107
4680.000000	97.045	170.3549
4750.000000	97.007	170.4521
4820.000000	96.966	170.5332
4870.000000	96.931	170.5379
4940.000000	96.874	170.5121
5000.000000	96.825	170.4019
5080.000000	96.737	170.2476
5150.000000	96.658	170.0660
5220.000000	96.569	169.8460
5300.000000	96.452	169.6006
5380.000000	96.313	169.4117
5450.000000	96.179	169.2200
5520.000000	96.019	169.1099
5600.000000	95.825	169.0595
5700.000000	95.575	169.1078
5800.000000	95.312	169.4091
5900.000000	95.042	169.8530
6000.000000	94.773	170.4863
6080.000000	94.556	171.1334
6150.000000	94.378	171.8739
6220.000000	94.220	172.6352
6300.000000	94.048	173.6176
6400.000000	93.842	174.9743
6500.000000	93.679	176.4237
6600.000000	93.545	177.9251
6700.000000	93.423	179.5504
6800.000000	93.358	-178.9431
6900.000000	93.353	-177.4481
7000.000000	93.424	-176.0159
7100.000000	93.537	-174.6353
7200.000000	93.682	-173.5148
7300.000000	93.858	-172.6387
7400.000000	94.047	-172.1614
7500.000000	94.262	-172.0439
7620.000000	94.505	-172.1727
7750.000000	94.856	-173.3571
7880.000000	94.944	-175.1421
8000.000000	94.927	-177.5403
8120.000000	94.775	179.7886
8250.000000	94.446	176.8708
8380.000000	93.939	174.4021
8500.000000	93.339	172.9808
8620.000000	92.715	173.1105
8750.000000	92.340	174.4232
8850.000000	92.144	173.2356
9000.000000	91.340	171.4250
9120.000000	90.631	171.7139
9250.000000	89.900	173.0660
9380.000000	89.251	175.0125
9500.000000	88.734	177.1927
9620.000000	88.268	179.5212
9750.000000	87.847	-177.8375
9880.000000	87.523	-175.1156
10000.000000	87.252	-172.6769
10150.000000	87.031	-169.7750
10300.000000	86.868	-166.9631
10440.000000	86.792	-164.9595
10600.000000	86.747	-163.1108
10750.000000	86.765	-161.9569
10900.000000	86.817	-162.0372
11060.000000	86.768	-162.3624
11200.000000	86.738	-163.5598
11380.000000	86.436	-166.0662
11500.000000	86.071	-167.6097
11720.000000	85.157	-169.2419
11800.000000	84.747	-168.9832
12060.000000	83.678	-165.3927
12200.000000	83.443	-162.6611
12410.000000	83.405	-160.0999
12500.000000	83.437	-159.9043
12650.000000	83.464	-160.0612
12800.000000	83.362	-161.1736
13150.000000	82.782	-163.5935
13200.000000	82.677	-163.8788
13400.000000	82.227	-164.8118
13600.000000	81.737	-164.9386
13800.000000	81.361	-165.0830
14000.000000	81.067	-164.4783
14300.000000	80.726	-163.7881
14500.000000	80.648	-163.6363
14750.000000	80.764	-164.0394
15000.000000	80.844	-165.8132
15250.000000	81.000	-168.6766
15500.000000	81.266	-172.2039
15750.000000	81.465	-177.7053
16000.000000	81.721	174.8885
16250.000000	81.783	166.1132
16500.000000	81.797	155.7350
16750.000000	81.600	144.5164
17000.000000	81.234	132.7092
17250.000000	80.823	120.1915
17500.000000	80.383	106.4316
17750.000000	79.850	92.1760
18000.000000	79.300	77.3067
18250.000000	78.722	57.8920
18500.000000	78.056	38.2945
18750.000000	77.112	15.0466
19000.000000	75.798	-10.7053
19250.000000	74.073	-36.6376
19500.000000	72.242	-63.7045
19750.000000	69.993	-91.9298
