* Measurement data measured by REW V5.20.4
* Source: Headset (2- USB-C to 3.5mm Headphone Jack Adapter), MICROPHONE (Master Volume), R, volume: 0.250
* Format: 256k Log Swept Sine, 1 sweep at -6.0 dBFS with no timing reference
* Dated: 14 Jan, 2023 8:08:20 PM
* REW Settings:
*  C-weighting compensation: Off
*  Target level: 75.0 dB
* Note: 
* Measurement: Yume 2 L
* Smoothing: None
* Frequency Step: 1/48 octave
* Start Frequency: 20.000 Hz
*
* Freq(Hz)	SPL(dB)	Phase(degrees)
20.000000	93.076	-145.5860
20.299999	93.139	-146.4545
20.600000	93.201	-147.3566
20.900000	93.260	-148.2923
21.200001	93.312	-149.2467
21.400000	93.342	-149.8787
21.799999	93.392	-151.1057
22.000000	93.413	-151.6889
22.400000	93.453	-152.7833
22.700001	93.484	-153.5510
23.000000	93.520	-154.2942
23.299999	93.559	-155.0364
23.600000	93.600	-155.7938
24.000000	93.655	-156.8395
24.299999	93.692	-157.6440
24.700001	93.731	-158.7187
25.000000	93.754	-159.5042
25.400000	93.779	-160.5016
25.799999	93.801	-161.4354
26.200001	93.825	-162.3190
26.500000	93.845	-162.9638
26.900000	93.873	-163.8171
27.200001	93.892	-164.4602
27.600000	93.917	-165.3246
28.000000	93.941	-166.1936
28.500000	93.967	-167.2778
29.000000	93.991	-168.3539
29.500000	94.011	-169.4201
30.000000	94.027	-170.4728
30.400000	94.040	-171.3002
30.700001	94.048	-171.9087
31.100000	94.058	-172.6997
31.500000	94.067	-173.4659
32.000000	94.079	-174.3943
32.500000	94.094	-175.3062
33.000000	94.110	-176.2189
33.500000	94.120	-177.1339
34.000000	94.127	-178.0371
34.500000	94.135	-178.9151
35.000000	94.143	-179.7697
35.500000	94.150	179.3883
36.000000	94.155	178.5557
36.500000	94.158	177.7390
37.000000	94.160	176.9409
37.500000	94.163	176.1528
38.200001	94.164	175.0475
38.700001	94.157	174.2594
39.500000	94.143	173.0251
40.000000	94.132	172.2737
40.599998	94.119	171.3892
41.200001	94.106	170.5179
41.799999	94.092	169.6530
42.500000	94.074	168.6554
43.099998	94.057	167.8307
43.700001	94.042	167.0369
44.400002	94.028	166.1174
45.000000	94.016	165.3200
45.500000	94.004	164.6624
46.200001	93.987	163.7640
46.799999	93.974	162.9958
47.500000	93.954	162.0918
48.200001	93.928	161.2345
48.700001	93.911	160.6706
49.400002	93.901	159.8818
50.000000	93.895	159.1157
50.799999	93.863	158.0097
51.500000	93.811	157.1837
52.200001	93.771	156.5506
53.000000	93.760	155.7911
53.799999	93.746	154.8273
54.500000	93.710	153.9845
55.200001	93.672	153.2449
56.000000	93.637	152.4185
57.000000	93.590	151.3575
58.000000	93.541	150.3717
59.000000	93.497	149.3744
60.000000	93.444	148.4188
60.799999	93.413	147.6617
61.500000	93.384	146.9634
62.200001	93.350	146.2682
63.000000	93.307	145.4985
64.000000	93.251	144.6136
65.000000	93.210	143.7852
66.000000	93.170	142.8597
67.000000	93.119	142.0253
68.000000	93.083	141.2200
69.000000	93.040	140.3386
70.000000	92.988	139.5114
71.000000	92.938	138.7354
72.000000	92.895	137.9656
73.000000	92.849	137.1163
74.000000	92.787	136.3257
75.000000	92.738	135.6385
76.199997	92.685	134.7151
77.500000	92.622	133.7947
78.800003	92.564	132.8180
80.000000	92.502	131.9990
81.199997	92.449	131.1508
82.500000	92.383	130.2717
83.800003	92.320	129.4013
85.000000	92.265	128.6433
86.199997	92.209	127.8298
87.500000	92.143	127.0285
88.500000	92.097	126.4102
90.000000	92.025	125.4872
91.199997	91.969	124.7661
92.500000	91.907	123.9849
93.800003	91.847	123.2407
95.000000	91.794	122.5320
96.199997	91.736	121.8507
97.500000	91.678	121.1464
98.800003	91.620	120.4108
100.000000	91.562	119.7788
101.500000	91.497	118.9854
103.000000	91.432	118.1964
104.400002	91.367	117.4743
106.000000	91.300	116.6686
107.500000	91.232	115.9491
109.000000	91.169	115.2188
110.599998	91.105	114.4339
112.000000	91.041	113.7434
113.800003	90.965	112.8875
115.000000	90.903	112.3597
117.199997	90.821	111.4375
118.000000	90.788	111.1047
120.599998	90.677	109.9142
122.000000	90.639	109.3390
124.099998	90.551	108.4344
125.000000	90.521	108.0720
126.500000	90.460	107.4656
128.000000	90.408	106.8906
131.500000	90.277	105.5160
132.000000	90.260	105.3115
134.000000	90.184	104.5674
136.000000	90.115	103.8318
138.000000	90.044	103.1073
140.000000	89.975	102.3898
143.000000	89.873	101.3480
145.000000	89.804	100.6977
147.500000	89.717	99.9387
150.000000	89.648	99.0341
152.500000	89.564	98.2085
155.000000	89.477	97.4505
157.500000	89.391	96.6846
160.000000	89.308	95.9443
162.500000	89.236	95.2000
165.000000	89.159	94.4973
167.500000	89.085	93.7968
170.000000	89.007	93.1000
172.500000	88.938	92.4193
175.000000	88.870	91.7842
177.500000	88.809	91.1226
180.000000	88.744	90.5062
182.500000	88.674	89.9012
185.000000	88.615	89.2608
187.500000	88.549	88.6584
190.000000	88.494	88.0747
192.500000	88.436	87.4916
195.000000	88.384	86.9697
197.500000	88.328	86.4095
200.000000	88.279	85.8868
203.000000	88.210	85.2673
206.000000	88.154	84.6612
209.000000	88.097	84.0789
212.000000	88.037	83.4892
214.000000	87.998	83.1036
218.000000	87.915	82.3873
220.000000	87.875	82.0568
224.000000	87.793	81.3807
227.000000	87.735	80.8921
230.000000	87.668	80.4802
233.000000	87.611	79.9243
236.000000	87.565	79.5878
240.000000	87.474	79.1290
243.000000	87.423	78.8537
247.000000	87.361	78.5987
250.000000	87.324	78.4707
254.000000	87.322	78.4453
258.000000	87.367	78.3096
262.000000	87.454	77.8036
265.000000	87.521	77.0309
269.000000	87.540	75.9366
272.000000	87.512	75.0237
276.000000	87.462	74.0196
280.000000	87.396	73.2095
285.000000	87.312	72.2954
290.000000	87.236	71.5911
295.000000	87.161	70.8726
300.000000	87.091	70.2346
304.000000	87.041	69.8080
307.000000	87.006	69.4628
311.000000	86.956	69.0511
315.000000	86.913	68.6240
320.000000	86.862	68.1169
325.000000	86.812	67.6371
330.000000	86.760	67.1694
335.000000	86.716	66.7213
340.000000	86.678	66.2880
345.000000	86.636	65.8469
350.000000	86.596	65.3890
355.000000	86.559	65.0686
360.000000	86.522	64.7158
365.000000	86.494	64.4081
370.000000	86.462	64.0992
375.000000	86.440	63.7772
382.000000	86.415	63.3380
387.000000	86.396	62.9794
395.000000	86.357	62.3578
400.000000	86.330	61.9669
406.000000	86.282	61.5641
412.000000	86.235	61.1238
418.000000	86.182	60.8304
425.000000	86.122	60.4852
431.000000	86.060	60.2802
437.000000	86.002	60.1714
444.000000	85.948	60.1785
450.000000	85.913	60.2077
455.000000	85.894	60.2336
462.000000	85.882	60.3057
468.000000	85.876	60.3139
475.000000	85.874	60.2481
482.000000	85.878	60.2076
487.000000	85.881	60.1641
494.000000	85.890	60.0594
500.000000	85.889	59.9882
508.000000	85.893	59.8845
515.000000	85.898	59.8148
522.000000	85.899	59.7379
530.000000	85.902	59.7204
538.000000	85.909	59.7214
545.000000	85.929	59.7017
552.000000	85.940	59.7221
560.000000	85.964	59.6667
570.000000	85.980	59.5499
580.000000	86.001	59.4823
590.000000	86.011	59.3906
600.000000	86.017	59.3954
608.000000	86.022	59.4163
615.000000	86.035	59.4173
622.000000	86.037	59.4616
630.000000	86.050	59.5240
640.000000	86.064	59.6024
650.000000	86.084	59.7134
660.000000	86.102	59.8470
670.000000	86.117	59.9960
680.000000	86.136	60.1725
690.000000	86.159	60.3275
700.000000	86.184	60.5089
710.000000	86.213	60.7127
720.000000	86.245	60.9326
730.000000	86.278	61.1285
740.000000	86.312	61.3958
750.000000	86.344	61.5934
762.000000	86.395	61.8896
775.000000	86.447	62.2096
788.000000	86.506	62.5783
800.000000	86.561	62.9041
812.000000	86.635	63.1937
825.000000	86.707	63.5222
838.000000	86.789	63.8690
850.000000	86.865	64.1336
862.000000	86.946	64.4403
875.000000	87.039	64.7682
885.000000	87.109	64.9971
900.000000	87.226	65.2894
912.000000	87.322	65.5254
925.000000	87.437	65.7730
938.000000	87.542	65.9476
950.000000	87.654	66.1135
962.000000	87.765	66.2718
975.000000	87.887	66.3721
988.000000	88.020	66.4421
1000.000000	88.139	66.4849
1015.000000	88.286	66.4660
1030.000000	88.432	66.4012
1044.000000	88.564	66.3652
1060.000000	88.717	66.2223
1075.000000	88.853	66.0866
1090.000000	88.982	65.8852
1106.000000	89.104	65.6593
1120.000000	89.211	65.4309
1138.000000	89.344	65.1498
1150.000000	89.424	64.9031
1172.000000	89.575	64.5096
1180.000000	89.627	64.3443
1206.000000	89.790	63.8347
1220.000000	89.895	63.5853
1241.000000	90.058	63.1461
1250.000000	90.129	62.9566
1265.000000	90.243	62.6855
1280.000000	90.354	62.3793
1315.000000	90.605	61.7221
1320.000000	90.638	61.6253
1340.000000	90.776	61.2682
1360.000000	90.955	60.9359
1380.000000	91.098	60.5964
1400.000000	91.234	60.2991
1430.000000	91.438	59.8278
1450.000000	91.570	59.5289
1475.000000	91.742	59.1709
1500.000000	91.909	58.8306
1525.000000	92.077	58.4821
1550.000000	92.220	58.1271
1575.000000	92.361	57.7698
1600.000000	92.507	57.4066
1625.000000	92.653	57.0284
1650.000000	92.802	56.6049
1675.000000	92.945	56.2000
1700.000000	93.092	55.7493
1725.000000	93.241	55.2809
1750.000000	93.387	54.8010
1775.000000	93.536	54.2910
1800.000000	93.687	53.7582
1825.000000	93.838	53.2032
1850.000000	93.986	52.5815
1875.000000	94.140	51.9424
1900.000000	94.288	51.2495
1925.000000	94.433	50.4911
1950.000000	94.573	49.7180
1975.000000	94.709	48.8518
2000.000000	94.841	47.9701
2030.000000	94.989	46.8361
2060.000000	95.130	45.6642
2090.000000	95.259	44.4045
2120.000000	95.379	43.1014
2140.000000	95.448	42.2025
2180.000000	95.571	40.3677
2200.000000	95.619	39.4411
2240.000000	95.698	37.5475
2270.000000	95.739	36.1295
2300.000000	95.764	34.7208
2330.000000	95.772	33.3241
2360.000000	95.769	31.9586
2400.000000	95.741	30.1786
2430.000000	95.704	28.9274
2470.000000	95.642	27.3295
2500.000000	95.582	26.1826
2540.000000	95.487	24.7821
2580.000000	95.379	23.5160
2620.000000	95.264	22.3600
2650.000000	95.172	21.5953
2690.000000	95.045	20.6708
2720.000000	94.950	20.0792
2760.000000	94.823	19.3651
2800.000000	94.698	18.7887
2850.000000	94.541	18.2039
2900.000000	94.394	17.7482
2950.000000	94.257	17.4603
3000.000000	94.133	17.2633
3040.000000	94.044	17.2075
3070.000000	93.981	17.1970
3110.000000	93.904	17.2166
3150.000000	93.835	17.2928
3200.000000	93.764	17.4498
3250.000000	93.709	17.6553
3300.000000	93.669	17.8892
3350.000000	93.652	18.1758
3400.000000	93.648	18.4696
3450.000000	93.678	18.7592
3500.000000	93.729	19.0287
3550.000000	93.808	19.2662
3600.000000	93.919	19.3528
3650.000000	94.053	19.2726
3700.000000	94.208	18.9432
3750.000000	94.367	18.3474
3820.000000	94.597	17.0349
3870.000000	94.743	15.7704
3950.000000	94.936	13.1654
4000.000000	95.018	11.2015
4060.000000	95.056	8.5582
4120.000000	95.020	5.6630
4180.000000	94.891	2.6232
4250.000000	94.605	-0.8861
4310.000000	94.249	-3.6345
4370.000000	93.803	-5.9149
4440.000000	93.197	-7.7621
4500.000000	92.651	-8.4785
4550.000000	92.210	-8.5446
4620.000000	91.638	-8.0015
4680.000000	91.217	-7.1547
4750.000000	90.789	-5.9841
4820.000000	90.401	-4.7142
4870.000000	90.142	-3.8007
4940.000000	89.787	-2.4392
5000.000000	89.494	-1.1345
5080.000000	89.123	0.7662
5150.000000	88.823	2.6467
5220.000000	88.540	4.7246
5300.000000	88.261	7.3681
5380.000000	88.030	10.2311
5450.000000	87.869	12.8572
5520.000000	87.743	15.5963
5600.000000	87.658	18.8065
5700.000000	87.620	22.8071
5800.000000	87.694	26.7188
5900.000000	87.852	30.5038
6000.000000	88.104	33.9611
6080.000000	88.373	36.5740
6150.000000	88.643	38.4707
6220.000000	88.942	40.1669
6300.000000	89.314	41.7457
6400.000000	89.806	43.1170
6500.000000	90.329	43.9814
6600.000000	90.855	44.2792
6700.000000	91.403	43.7806
6800.000000	91.915	42.4431
6900.000000	92.380	40.3276
7000.000000	92.763	37.7619
7100.000000	93.035	35.0532
7200.000000	93.196	32.5437
7300.000000	93.290	30.3482
7400.000000	93.356	28.6057
7500.000000	93.432	27.2805
7620.000000	93.588	25.8831
7750.000000	93.927	24.2075
7880.000000	94.146	22.0817
8000.000000	94.397	19.3879
8120.000000	94.669	15.8008
8250.000000	94.949	10.4446
8380.000000	95.064	3.2518
8500.000000	94.882	-4.4418
8620.000000	94.378	-12.2688
8750.000000	93.460	-19.9699
8850.000000	92.563	-24.8478
9000.000000	91.054	-29.9327
9120.000000	89.817	-32.2072
9250.000000	88.486	-33.2087
9380.000000	87.246	-32.6415
9500.000000	86.214	-31.3540
9620.000000	85.308	-29.2246
9750.000000	84.435	-26.2994
9880.000000	83.717	-23.1380
10000.000000	83.181	-20.0908
10150.000000	82.664	-16.4241
10300.000000	82.210	-12.4646
10440.000000	81.936	-9.1638
10600.000000	81.780	-5.6786
10750.000000	81.709	-2.5329
10900.000000	81.764	0.0298
11060.000000	81.915	1.8007
11200.000000	81.994	2.8132
11380.000000	82.050	5.7399
11500.000000	82.420	7.1841
11720.000000	83.190	7.0260
11800.000000	83.469	6.0889
12060.000000	84.231	0.5642
12200.000000	84.385	-3.9528
12410.000000	84.266	-10.0109
12500.000000	84.130	-11.6489
12650.000000	84.003	-13.3181
12800.000000	84.118	-14.7040
13150.000000	84.818	-22.7750
13200.000000	84.893	-24.4811
13400.000000	85.072	-31.7985
13600.000000	85.126	-39.3458
13800.000000	85.199	-46.8626
14000.000000	85.390	-54.7365
14300.000000	85.955	-68.4120
14500.000000	86.478	-80.1687
14750.000000	87.161	-99.6296
15000.000000	87.289	-124.9961
15250.000000	86.217	-151.9959
15500.000000	84.268	-174.6964
15750.000000	82.110	167.4146
16000.000000	79.978	154.1415
16250.000000	78.262	144.5709
16500.000000	77.304	137.5546
16750.000000	77.121	128.8239
17000.000000	77.329	115.3774
17250.000000	77.359	97.7224
17500.000000	76.989	78.5988
17750.000000	76.594	59.0928
18000.000000	76.264	37.7801
18250.000000	76.123	14.9126
18500.000000	75.908	-14.1595
18750.000000	75.708	-48.3522
19000.000000	75.276	-91.1621
19250.000000	73.946	-142.2244
19500.000000	71.457	159.8401
19750.000000	68.195	97.1650
